Date and Time:                Tue Jan 18 15:32:26.000 2022
Software Version:             4.31.30023.0
Temperature (C):              -50
Model:                        DU420_BVF
Data Type:                    Counts (Bg Corrected)
Acquisition Mode:             Accumulate
Trigger Mode:                 Internal
Exposure Time (secs):         0.09999
Accumulate Cycle Time (secs): 0.09999
Frequency (Hz):               10.001
Number of Accumulations:      1000
Readout Mode:                 Full Vertical Binning
Horizontal binning:           1
Extended Dynamic Range:       off
Horizontally flipped:         false
Vertical Shift Speed (usecs): 8.25
Pixel Readout Time (usecs):   30.303
Serial Number:                22942
Pre-Amplifier Gain:           1.000000
Spurious Noise Filter Mode:   No Filter
Photon counted:               false
Data Averaging Filter Mode:   No Filter
KY328i:
Serial Number:                
Wavelength (nm):              749.812
Grating Groove Density (l/mm):150.012
Grating Blaze:                500nm
Output Flipper Port:          Direct
Filter:                       5-664 LP



500,-181.217
500.37564,-251.459
500.75131,-314.082
501.12695,-371.197
501.50262,-394.266
501.87827,-216.369
502.25394,-312.471
502.62958,-456.482
503.00525,-276.333
503.38089,-412.171
503.75656,-440.316
504.13223,-235.375
504.50787,-256.816
504.88354,-353.875
505.25919,-370.174
505.63486,-298.993
506.0105,-253.616
506.38617,-302.609
506.76181,-314.778
507.13748,-211.041
507.51312,-203.503
507.88879,-332.445
508.26443,-377.017
508.64011,-212.483
509.01578,-269.188
509.39142,-390.121
509.76709,-348.592
510.14273,-237.341
510.5184,-276.13
510.89404,-309.331
511.26971,-210.547
511.64536,-194.619
512.021,-212.216
512.39667,-143.507
512.77234,-87.8147
513.14801,-401.84
513.52368,-480.19
513.89929,-236.564
514.27496,-253.451
514.65063,-461.547
515.02631,-437.256
515.40192,-234.391
515.77759,-365.243
516.15326,-275.046
516.52893,-184.829
516.90454,-430.114
517.28021,-472.058
517.65588,-347.243
518.03156,-305.577
518.40723,-435.227
518.78284,-494.402
519.15851,-308.476
519.53418,-121.812
519.90985,-301.068
520.28546,-394.303
520.66113,-366
521.0368,-410.066
521.41248,-481.983
521.78809,-273.79
522.16376,-130.716
522.53943,-327.238
522.9151,-180.786
523.29077,-172.786
523.66638,-393.114
524.04205,-350.15
524.41772,-241.732
524.7934,-203.095
525.16901,-263.287
525.54468,-354.822
525.92035,-152.922
526.29602,-24.3045
526.67169,-233.901
527.0473,-232.988
527.42297,-165.761
527.79865,-253.851
528.17432,-385.082
528.54993,-192.429
528.9256,-61.7247
529.30127,-158.985
529.67694,-167.897
530.05255,-156.126
530.42822,-127.732
530.80389,-100.296
531.17957,-185.97
531.55524,-308.969
531.93085,-348.215
532.30652,-302.062
532.68219,-316.471
533.05786,-275.929
533.43347,-190.24
533.80914,-212.951
534.18481,-295.178
534.56049,-294.943
534.9361,-191.129
535.31177,-128.235
535.68744,-189.332
536.06311,-274.371
536.43878,-240.273
536.81439,-99.94
537.19006,-94.6744
537.56573,-271.15
537.94141,-383.078
538.31702,-164.812
538.69269,-71.5889
539.06836,-217.011
539.44403,-207.165
539.81964,-199.56
540.19531,-247.656
540.57098,-266.688
540.94666,-189.147
541.32233,-43.9992
541.69794,13.4255
542.07361,-104.605
542.44928,-233.053
542.82495,-187.736
543.20056,-53.4788
543.57623,-47.6697
543.9519,-112.095
544.32758,-164.341
544.70325,-172.659
545.07886,-142.289
545.45453,-60.902
545.8302,-37.226
546.20587,-137.258
546.58148,-235.163
546.95715,-227.771
547.33282,-163.969
547.7085,-140.252
548.08411,-124.775
548.45978,-145.226
548.83545,-202.876
549.21112,-244.2
549.58679,-245.443
549.9624,-200.768
550.33807,-164.093
550.71375,-188.892
551.08942,-98.411
551.46503,-9.67094
551.8407,-94.4873
552.21637,-173.849
552.59204,-181.936
552.96765,-186.194
553.34332,-242.826
553.71899,-236.915
554.09467,-190.516
554.47034,-173.488
554.84595,-192.257
555.22162,-196.262
555.59729,-206.874
555.97296,-201.137
556.34857,-74.1457
556.72424,-2.41257
557.09991,-76.3567
557.47559,-166.827
557.85126,-58.8663
558.22687,143.733
558.60254,140.238
558.97821,-155.112
559.35388,-189.039
559.72949,-41.736
560.10516,-61.9478
560.48083,-261.56
560.85651,-241.565
561.23212,-17.3945
561.60779,111.939
561.98346,52.5582
562.35913,-86.7541
562.7348,-135.051
563.11041,-66.2219
563.48608,-115.92
563.86176,-109.483
564.23743,6.10946
564.61304,-2.46398
564.98871,-32.5379
565.36438,-85.7075
565.74005,-110.967
566.11566,53.7271
566.49133,41.2102
566.867,-22.5153
567.24268,131.879
567.61835,87.295
567.99396,-97.2088
568.36963,-148.25
568.7453,35.1473
569.12097,135.192
569.49658,16.4144
569.87225,-132.026
570.24792,-31.4631
570.6236,32.8927
570.99921,114.218
571.37488,310.799
571.75055,344.737
572.12622,483.43
572.50189,698.318
572.8775,831.725
573.25317,1324.8
573.62885,1905.42
574.00452,2350.11
574.38013,2855.77
574.7558,3460.31
575.13147,4053.25
575.50714,4505.44
575.88281,4814.35
576.25842,5183.78
576.63409,5541.4
577.00977,5697.12
577.38544,5739.21
577.76105,5811.46
578.13672,5884.62
578.51239,5840.13
578.88806,5805.08
579.26367,5950.13
579.63934,6168.74
580.01501,6166.92
580.39069,6224.23
580.76636,6215.28
581.14197,6013.12
581.51764,6025.17
581.89331,6274.12
582.26898,6329.44
582.64459,6006.34
583.02026,6023.37
583.39594,6267.09
583.77161,6367.63
584.14722,6235.44
584.52289,6200.92
584.89856,6296.74
585.27423,6392.02
585.6499,6454.62
586.02551,6390.09
586.40118,6295.88
586.77686,6348.14
587.15253,6450
587.52814,6431.15
587.90381,6415.78
588.27948,6519.98
588.65515,6639.13
589.03076,6639.93
589.40643,6612.93
589.7821,6658.42
590.15778,6726.13
590.53345,6648.74
590.90906,6478.88
591.28473,6691.27
591.6604,6893.63
592.03607,6774.81
592.41168,6562.78
592.78735,6589.98
593.16302,6764.61
593.5387,6902.19
593.91437,6834.53
594.28998,6860.37
594.66565,6859.6
595.04132,6661.11
595.41699,6652.96
595.7926,6737.3
596.16827,6769.23
596.54395,6685.02
596.91962,6585.14
597.29523,6670.98
597.6709,6720.7
598.04657,6538.43
598.42224,6446.76
598.79791,6511.87
599.17352,6485.8
599.54919,6521.39
599.92487,6674.22
600.30054,6728.99
600.67615,6651.17
601.05182,6496.06
601.42749,6501.97
601.80316,6550.67
602.17877,6306.4
602.55444,5996.14
602.93011,5886.45
603.30579,5632.53
603.68146,5186.11
604.05707,4683.64
604.43274,4308.88
604.80841,3963.28
605.18408,3435.2
605.55969,2925.81
605.93536,2399.91
606.31104,2027.63
606.68671,1805.64
607.06238,1512.23
607.43799,1283.5
607.81366,1067.81
608.18933,1019.51
608.565,1039.93
608.94061,819.903
609.31628,730.433
609.69196,719.76
610.06763,602.065
610.44324,511.207
610.81891,527.518
611.19458,562.881
611.57025,527.655
611.94592,532.953
612.32153,490.261
612.6972,456.858
613.07288,511.574
613.44855,488.916
613.82416,406.964
614.19983,349.617
614.5755,353.974
614.95117,364.651
615.32678,323.869
615.70245,254.943
616.07813,345.837
616.4538,396.032
616.82947,306.297
617.20508,269.016
617.58075,310.594
617.95642,332.46
618.33209,313.065
618.7077,367.885
619.08337,274.102
619.45905,187.545
619.83472,282.862
620.21033,258.366
620.586,283.309
620.96167,277.532
621.33734,119.265
621.71301,177.801
622.08862,231.6
622.46429,160.02
622.83997,185.064
623.21564,311.39
623.59125,267.814
623.96692,140.423
624.34259,223.299
624.71826,235.891
625.09393,200.343
625.46954,200.007
625.84521,179.868
626.22089,144.047
626.59656,67.5476
626.97217,0.258789
627.34784,56.8253
627.72351,86.0788
628.09918,36.1329
628.47479,45.0731
628.85046,99.178
629.22614,133.24
629.60181,121.214
629.97748,59.1828
630.35309,50.3125
630.72876,102.108
631.10443,146.313
631.4801,118.936
631.85571,40.1576
632.23138,9.49076
632.60706,30.0441
632.98273,-48.2715
633.35834,19.2103
633.73401,128.772
634.10968,5.18504
634.48535,-104.587
634.86102,-99.6471
635.23663,-33.8459
635.6123,-23.5988
635.98798,-142.862
636.36365,-194.65
636.73926,-100.808
637.11493,-53.7032
637.4906,42.355
637.86627,112.516
638.24188,74.9835
638.61755,86.6315
638.99323,131.207
639.3689,38.1663
639.74457,-138.718
640.12018,125.903
640.49585,161.071
640.87152,-141.832
641.24719,-103.28
641.6228,-23.5593
641.99847,-12.1463
642.37415,14.373
642.74982,79.4873
643.12549,29.2602
643.5011,-46.9658
643.87677,-33.4163
644.25244,-34.9492
644.62811,72.1745
645.00372,130.702
645.37939,-28.9731
645.75507,-40.8749
646.13074,-18.0814
646.50635,-76.6931
646.88202,-114.159
647.25769,-61.5795
647.63336,64.7096
648.00903,87.9219
648.38464,-119.835
648.76031,-19.0922
649.13599,62.1793
649.51166,-144.186
649.88727,9.56902
650.26294,-87.2124
650.63861,-237.627
651.01428,55.6256
651.38989,4.31256
651.76556,-129.081
652.14124,-21.7263
652.51691,138.747
652.89258,28.8775
653.26819,-7.91953
653.64386,217.968
654.01953,295.067
654.3952,10.9415
654.77081,-181.323
655.14648,-33.9347
655.52216,-69.3474
655.89783,43.9759
656.2735,129.308
656.64911,-90.3771
657.02478,19.6383
657.40045,33.2147
657.77612,-90.0301
658.15173,80.3893
658.5274,64.6425
658.90308,43.8752
659.27875,153.742
659.65436,103.167
660.03003,73.6183
660.4057,38.6908
660.78137,-66.6121
661.15704,-75.6871
661.53265,43.8491
661.90833,91.4336
662.284,-13.5184
662.65967,64.3684
663.03528,-64.4076
663.41095,-247.032
663.78662,8.83416
664.16229,29.7298
664.5379,-40.6929
664.91357,27.6141
665.28925,27.5622
665.66492,-18.7944
666.04059,-78.1385
666.4162,-116.045
666.79187,-74.8801
667.16754,-2.12566
667.54321,-48.7422
667.91882,-187.31
668.29449,-42.9519
668.67017,71.6586
669.04584,-21.3191
669.42145,-120.451
669.79712,-99.7906
670.17279,-87.0815
670.54846,-131.937
670.92413,-101.912
671.29974,-40.7235
671.67542,-4.71525
672.05109,-85.5296
672.42676,-315.081
672.80237,-174.081
673.17804,35.4617
673.55371,-134.668
673.92938,-92.7692
674.30505,11.1372
674.68066,-10.2891
675.05634,-95.4047
675.43201,-193.914
675.80768,2.7803
676.18329,203.942
676.55896,-208.178
676.93463,-207.201
677.3103,20.1497
677.68591,-81.4798
678.06158,-228.361
678.43726,-222.491
678.81293,-99.0219
679.1886,-25.4877
679.56421,-110.309
679.93988,-237.149
680.31555,-265.283
680.69122,-175.439
681.06683,-109.86
681.4425,-113.291
681.81818,-90.6034
682.19385,-3.31165
682.56946,-222.53
682.94513,-248.237
683.3208,86.479
683.69647,-44.1085
684.07214,-75.2737
684.44775,30.9106
684.82343,-68.0601
685.1991,-157.202
685.57477,-140.039
685.95038,-154.65
686.32605,-318.067
686.70172,-345.882
687.07739,-189.49
687.453,-43.478
687.82867,-116.914
688.20435,-265.29
688.58002,-308.167
688.95569,-227.117
689.3313,-165.326
689.70697,-78.6106
690.08264,72.8117
690.45831,153.715
690.83392,-76.583
691.20959,-122.041
691.58527,-23.1579
691.96094,-200.923
692.33661,-285.028
692.71222,-192.445
693.08789,-114.191
693.46356,-226.428
693.83923,-333.604
694.21484,-229.459
694.59052,-18.773
694.96619,-72.9121
695.34186,-224.435
695.71747,-198
696.09314,-11.3516
696.46881,-58.2683
696.84448,-153.228
697.22015,-194.228
697.59576,-237.053
697.97144,-133.906
698.34711,-82.2248
698.72278,-180.586
699.09839,-251.275
699.47406,-209.766
699.84973,-189.945
700.2254,-231.022
700.60101,-171.731
700.97668,-195.237
701.35236,-242.106
701.72803,-180.546
702.1037,-132.951
702.47931,-10.2262
702.85498,88.4868
703.23065,8.12129
703.60632,-27.3858
703.98193,-77.1462
704.3576,-139.135
704.73328,-52.7158
705.10895,112.2
705.48462,158.215
705.86023,6.1772
706.2359,-164.226
706.61157,-100.039
706.98724,-92.8292
707.36285,-298.703
707.73853,-146.102
708.1142,-69.1715
708.48987,-136.672
708.86548,-39.5594
709.24115,-4.0364
709.61682,6.70862
709.99249,26.8752
710.36816,-34.1307
710.74377,-143.543
711.11945,-143.08
711.49512,2.53337
711.87079,94.1929
712.2464,2.84562
712.62207,-74.7291
712.99774,-9.20996
713.37341,-63.6055
713.74902,-63.5669
714.12469,-26.1521
714.50037,-127.861
714.87604,-237.375
715.25171,-232.321
715.62732,-123.454
716.00299,-31.5709
716.37866,-34.8191
716.75433,-91.8679
717.12994,-129.254
717.50562,-112.739
717.88129,-30.581
718.25696,-17.7129
718.63257,-107.473
719.00824,-85.1666
719.38391,-157.316
719.75958,-134.213
720.13525,143.897
720.51086,-22.4374
720.88654,-38.8566
721.26221,112.194
721.63788,-194.515
722.01349,-69.6569
722.38916,157.853
722.76483,-13.123
723.1405,-252.863
723.51617,-232.657
723.89178,-54.4588
724.26746,-16.5036
724.64313,-181.626
725.0188,-162.877
725.39441,-115.26
725.77008,-277.034
726.14575,-41.9476
726.52142,34.6811
726.89703,-218.657
727.27271,-282.879
727.64838,-308.613
728.02405,-276.145
728.39972,-196.281
728.77533,-220.019
729.151,-163.438
729.52667,-122.185
729.90234,-182.85
730.27795,-122.513
730.65363,-153.664
731.0293,-273.72
731.40497,-252.893
731.78058,-63.2717
732.15625,-44.8984
732.53192,-158.45
732.90759,-95.9306
733.28326,-195.502
733.65887,-281.093
734.03455,-175.408
734.41022,-68.3002
734.78589,-5.81996
735.1615,-105.513
735.53717,-254.055
735.91284,-61.2354
736.28851,-85.6828
736.66412,-273.054
737.03979,-202.92
737.41547,-173.804
737.79114,-265.227
738.16681,-315.328
738.54242,-166.902
738.91809,-2.36416
739.29376,-22.3741
739.66943,-151.526
740.04504,-132.801
740.42072,-184.143
740.79639,-274.005
741.17206,-269.461
741.54773,-228.53
741.92334,-173.747
742.29901,-141.728
742.67468,-172.192
743.05035,-225.929
743.42596,-64.7747
743.80164,77.7598
744.17731,-167.526
744.55298,-201.081
744.92859,-105.512
745.30426,-96.6975
745.67993,-105.069
746.0556,-233.674
746.43127,-238.724
746.80688,-66.011
747.18256,-162.037
747.55823,-218.695
747.9339,-97.4862
748.30951,1.79855
748.68518,-104.468
749.06085,-191.147
749.43652,-170.53
749.81213,-168.187
750.18781,-144.283
750.56348,-128.958
750.93915,-146.191
751.31482,-163.091
751.69043,-169.028
752.0661,-110.439
752.44177,-57.3749
752.81744,-194.252
753.19305,-208.958
753.56873,-125.692
753.9444,-148.932
754.32007,-151.144
754.69574,-159.377
755.07135,-144.307
755.44702,-52.856
755.82269,-57.7147
756.19836,-191.28
756.57397,-253.481
756.94965,-88.8688
757.32532,-183.56
757.70099,-212.209
758.0766,-7.44195
758.45227,-195.629
758.82794,-228.618
759.20361,-153.216
759.57928,-258.205
759.9549,-116.345
760.33057,-123.683
760.70624,-258.903
761.08191,-131.993
761.45752,-98.0153
761.83319,-164.203
762.20886,-216.194
762.58453,-272.821
762.96014,-405.338
763.33582,-379.037
763.71149,-175.469
764.08716,-214.924
764.46283,-302.616
764.83844,-289.969
765.21411,-248.766
765.58978,-305.306
765.96545,-288.389
766.34106,-174.296
766.71674,-125.327
767.09241,-171.981
767.46808,-192.005
767.84369,-87.4996
768.21936,57.4673
768.59503,-51.4872
768.9707,-227.809
769.34637,-245.088
769.72198,-228.414
770.09766,-223.526
770.47333,-197.195
770.849,-145.188
771.22461,-161.994
771.60028,-227.523
771.97595,-248.215
772.35162,-187.078
772.72729,-179.038
773.10291,-192.933
773.47858,-127.344
773.85425,-6.88913
774.22992,-123.966
774.60553,-198.537
774.9812,-109.15
775.35687,-227.111
775.73254,-136.522
776.10815,-73.8858
776.48383,-283.41
776.8595,-163.053
777.23517,-136.786
777.61084,-302.457
777.98645,-308.395
778.36212,-191.9
778.73779,-186.507
779.11346,-292.977
779.48907,-299.518
779.86475,-297.95
780.24042,-270.733
780.61609,-201.196
780.9917,-155.187
781.36737,-61.3526
781.74304,-124.429
782.11871,-408.657
782.49438,-465.189
782.87,-330.38
783.24567,-191.895
783.62134,-161.028
783.99701,-215.205
784.37262,-317.049
784.74829,-343.644
785.12396,-191.58
785.49963,-62.1089
785.87524,-59.6265
786.25092,-97.555
786.62659,-39.7595
787.00226,-91.3878
787.37793,-223.395
787.75354,-275.111
788.12921,-235.741
788.50488,-180.132
788.88055,-235.818
789.25616,-341.297
789.63184,-128.861
790.00751,-114.496
790.38318,-287.82
790.75885,-152.073
791.13446,-264.754
791.51013,-273.981
791.8858,-15.0342
792.26147,-51.5092
792.63708,-149.758
793.01276,-150.135
793.38843,-130.191
793.7641,-220.403
794.13971,-286.783
794.51538,-245.819
794.89105,-154.839
795.26672,-156.655
795.6424,-159.306
796.01801,-149.257
796.39368,-179.079
796.76935,-105.904
797.14502,-159.364
797.52063,-313.156
797.8963,-262.606
798.27197,-208.184
798.64764,-163.451
799.02325,-101.842
799.39893,-140.639
799.7746,-115.526
800.15027,-95.0563
800.52594,-234.253
800.90155,-169.63
801.27722,-26.8447
801.65289,-68.4675
802.02856,-237.159
802.40417,-379.422
802.77985,-278.882
803.15552,-44.0747
803.53119,-137.664
803.90686,-142.451
804.28247,-88.6136
804.65814,-161.686
805.03381,-98.5424
805.40948,-197.715
805.7851,-252.01
806.16077,-106.169
806.53644,-169.159
806.91211,-242.717
807.28772,-198.868
807.66339,-216.182
808.03906,-322.194
808.41473,-265.248
808.79041,-179.378
809.16602,-132.801
809.54169,-102.878
809.91736,-217.89
810.29303,-240.18
810.66864,-233.311
811.04431,-159.913
811.41998,-110.563
811.79565,-273.018
812.17126,-187.906
812.54694,-38.4166
812.92261,-123.824
813.29828,-167.793
813.67395,-91.5755
814.04956,-68.6519
814.42523,-91.3358
814.8009,-59.0714
815.17657,-33.0569
815.55219,-14.0275
815.92786,-64.2909
816.30353,-35.2977
816.6792,-11.7389
817.05481,-67.0848
817.43048,-105.937
817.80615,-83.1397
818.18182,-101.038
818.5575,-120.998
818.93311,-43.5792
819.30878,-52.3606
819.68445,-149.894
820.06012,-217.963
820.43573,-142.514
820.8114,-83.8614
821.18707,-85.5778
821.56274,-112.333
821.93842,-146.701
822.31403,-141.087
822.6897,-101.714
823.06537,-109.742
823.44104,-119.459
823.81665,-121.898
824.19232,-126.213
824.56799,-128.888
824.94366,-183.624
825.31927,-174.109
825.69495,-34.4459
826.07062,-28.8107
826.44629,-2.07501
826.82196,138.327
827.19757,179
827.57324,38.1901
827.94891,-33.9961
828.32458,66.7897
828.7002,76.4914
829.07587,22.0598
829.45154,29.8481
829.82721,93.8695
830.20282,121.285
830.57849,-9.33594
830.95416,-37.4506
831.32983,191.702
831.70551,37.6859
832.08112,-60.0994
832.45679,67.2606
832.83246,59.4622
833.20813,38.9752
833.58374,40.3243
833.95941,-13.2944
834.33508,-55.0765
834.71075,-1.60751
835.08636,-24.8155
835.46204,-137.429
835.83771,-124.992
836.21338,-104.934
836.58905,8.50578
836.96466,145.639
837.34033,-86.4374
837.716,-219.527
838.09167,-106.768
838.46729,0.884722
838.84296,-17.448
839.21863,-35.5918
839.5943,33.339
839.96997,125.701
840.34558,181.092
840.72125,140.874
841.09692,49.6291
841.4726,19.9319
841.84821,-52.7691
842.22388,-111.018
842.59955,-67.7034
842.97522,20.3232
843.35083,4.40172
843.7265,-69.8623
844.10217,-121.628
844.47784,-198.02
844.85352,-116.932
845.22913,18.8418
845.6048,-19.0874
845.98047,-127.066
846.35614,-219.629
846.73175,-180.122
847.10742,1.9424
847.48309,2.15724
847.85876,-24.8249
848.23438,9.58937
848.61005,-72.4523
848.98572,-125.986
849.36139,14.9528
849.73706,119.422
850.11267,-222.392
850.48834,-157.213
850.86401,52.7287
851.23969,-86.5022
851.6153,44.6966
851.99097,104.855
852.36664,-22.9494
852.74231,-88.2046
853.11798,-73.5463
853.49359,-60.9257
853.86926,-15.1984
854.24493,112.505
854.62061,79.8375
854.99622,15.0799
855.37189,-3.11792
855.74756,-106.994
856.12323,-142.883
856.49884,-124.294
856.87451,-169.122
857.25018,-272.218
857.62585,-144.605
858.00153,64.8772
858.37714,58.851
858.75281,-66.7564
859.12848,-164.33
859.50415,-236.573
859.87976,-291.74
860.25543,-143.94
860.6311,-110.196
861.00677,-146.992
861.38239,72.6499
861.75806,81.0095
862.13373,-203.5
862.5094,-358.159
862.88507,-32.9752
863.26068,-37.852
863.63635,-124.55
864.01202,55.296
864.3877,-33.9117
864.76331,-225.594
865.13898,-204.263
865.51465,-33.0327
865.89032,-192.927
866.26593,-165.692
866.6416,-36.1453
867.01727,-229.28
867.39294,-134.88
867.76862,115.773
868.14423,232.674
868.5199,248.913
868.89557,394.249
869.27124,346.152
869.64685,118.685
870.02252,250.185
870.39819,283.247
870.77386,174.266
871.14954,194.601
871.52515,378.305
871.90082,364.442
872.27649,257.318
872.65216,326.496
873.02777,386.396
873.40344,529.213
873.77911,653.095
874.15479,581.816
874.5304,573.162
874.90607,516.081
875.28174,402.624
875.65741,401.191
876.03308,295.892
876.40869,155.093
876.78436,69.0772
877.16003,-18.1312
877.53571,79.2335
877.91132,154.178
878.28699,19.1611
878.66266,-53.3349
879.03833,6.60973
879.41394,56.0086
879.78961,-9.9041
880.16528,-43.6971
880.54095,-116.572
880.91663,-137.543
881.29224,-0.741776
881.66791,-62.5662
882.04358,-134.44
882.41925,-65.0841
882.79486,-15.4144
883.17053,-1.95239
883.5462,69.44
883.92188,133.138
884.29749,20.3871
884.67316,171.387
885.04883,449.121
885.4245,543.166
885.80017,636.891
886.17578,795.151
886.55145,953.717
886.92712,1055.55
887.3028,1161.86
887.67841,1190.27
888.05408,1173.28
888.42975,1214.44
888.80542,1182.47
889.18109,1032.52
889.5567,937.828
889.93237,1069.81
890.30804,1060.81
890.68372,1012.93
891.05933,1107.58
891.435,1177.15
891.81067,1095.93
892.18634,1190.59
892.56195,1520.26
892.93762,1444.2
893.31329,1599.97
893.68896,1876.74
894.06464,1749.58
894.44025,1770.22
894.81592,1908.32
895.19159,1941.39
895.56726,1836.65
895.94287,1789.31
896.31854,1749.67
896.69421,1661.44
897.06989,1594.61
897.4455,1545.96
897.82117,1671.66
898.19684,1918.12
898.57251,1944.3
898.94818,2057.36
899.32379,2184.32
899.69946,2091.91
900.07513,1939.53
900.45081,1786.62
900.82642,1560.12
901.20209,1228.14
901.57776,998.112
901.95343,993.369
902.3291,947.292
902.70471,573.656
903.08038,419.576
903.45605,552.449
903.83173,630.988
904.20734,388.495
904.58301,207.314
904.95868,280.685
905.33435,395.741
905.70996,209.168
906.08563,118.759
906.4613,210.495
906.83698,274.09
907.21265,270.411
907.58826,299.488
907.96393,286.701
908.3396,218.162
908.71527,490.983
909.09088,563.432
909.46655,404.321
909.84222,547.23
910.2179,469.867
910.59351,363.258
910.96918,396.374
911.34485,299.685
911.72052,366.131
912.09619,381.497
912.4718,193.033
912.84747,196.621
913.22314,136.611
913.59882,97.0933
913.97443,273.82
914.3501,364.797
914.72577,318.289
915.10144,274.822
915.47705,328.276
915.85272,301.33
916.22839,130.063
916.60406,47.9033
916.97974,250.73
917.35535,202.672
917.73102,176.074
918.10669,338.144
918.48236,313.988
918.85797,525.275
919.23364,668.648
919.60931,568.075
919.98499,908.445
920.36066,1212.05
920.73627,1405
921.11194,1665.98
921.48761,1643.88
921.86328,1602.19
922.23889,1661.46
922.61456,1674.3
922.99023,1701.53
923.36591,1784.41
923.74152,1817.27
924.11719,1644.26
924.49286,1386.98
924.86853,1322.77
925.2442,1398.06
925.61981,1262.01
925.99548,1337.23
926.37115,1560.97
926.74683,1596.38
927.12244,1451.57
927.49811,1449.31
927.87378,1534.77
928.24945,1475.17
928.62506,1409.59
929.00073,1476.94
929.3764,1483.01
929.75208,1266.23
930.12775,1338.6
930.50336,1223.68
930.87903,836.097
931.2547,789.806
931.63037,765.416
932.00598,579.19
932.38165,430.376
932.75732,594.835
933.133,612.541
933.50867,455.762
933.88428,420.065
934.25995,551.256
934.63562,440.613
935.01129,294.577
935.3869,422.594
935.76257,274.007
936.13824,211.351
936.51392,308.751
936.88953,225.684
937.2652,184.156
937.64087,120.355
938.01654,90.0334
938.39221,261.118
938.76782,153.079
939.14349,-19.2846
939.51917,81.2022
939.89484,248.459
940.27045,120.805
940.64612,87.5457
941.02179,329.111
941.39746,78.1651
941.77307,80.5949
942.14874,290.246
942.52441,138.635
942.90009,108.579
943.27576,150.396
943.65137,162.79
944.02704,185.375
944.40271,128.194
944.77838,175.624
945.15399,252.95
945.52966,54.9317
945.90533,17.4802
946.28101,138.149
946.65662,149.189
947.03229,16.6566
947.40796,142.695
947.78363,313.8
948.1593,217.414
948.53491,185.314
948.91058,219.466
949.28625,214.483
949.66193,138.144
950.03754,74.4018
950.41321,70.8252
950.78888,104.025
951.16455,126.418
951.54022,155.191
951.91583,159.297
952.2915,210.014
952.66718,371.402
953.04285,238.4
953.41846,126.983
953.79413,303.608
954.1698,372.109
954.54547,408.674
954.92108,342.801
955.29675,220.934
955.67242,467.416
956.0481,558.928
956.42377,353.044
956.79938,248.009
957.17505,407.815
957.55072,388.48
957.92639,218.28
958.302,345.923
958.67767,434.699
959.05334,387.696
959.42902,387.403
959.80463,574.117
960.1803,606.581
960.55597,564.631
960.93164,586.408
961.30731,532.772
961.68292,662.842
962.05859,785.028
962.43427,631.237
962.80994,477.062
963.18555,311.509
963.56122,238.921
963.93689,373.007
964.31256,446.68
964.68817,466.204
965.06384,469.194
965.43951,421.371
965.81519,382.676
966.19086,403.56
966.56647,465.843
966.94214,487.829
967.31781,422.133
967.69348,360.019
968.06909,343.911
968.44476,271.942
968.82043,244.092
969.19611,255.447
969.57178,298.224
969.94739,479.424
970.32306,414.358
970.69873,264.729
971.0744,499.46
971.45001,885.631
971.82568,1391.06
972.20135,2387.25
972.57703,4339.03
972.95264,7013.33
973.32831,9058.84
973.70398,10258.2
974.07965,11983.3
974.45532,13944.4
974.83093,16430.1
975.2066,19309.5
975.58228,21173.1
975.95795,21801.4
976.33356,20568.8
976.70923,17486.8
977.0849,14406.4
977.46057,11083.1
977.83618,8034.42
978.21185,6208.64
978.58752,4571.05
978.9632,3178.11
979.33887,2248.15
979.71448,1611.7
980.09015,1243.06
980.46582,972.106
980.84149,691.81
981.2171,491.307
981.59277,440.066
981.96844,403.028
982.34412,312.209
982.71979,335.256
983.0954,392.081
983.47107,444.126
983.84674,454.685
984.22241,314.402
984.59802,352.988
984.97369,442.775
985.34937,292.219
985.72504,378.074
986.10065,420.26
986.47632,266.646
986.85199,193.562
987.22766,177.299
987.60333,172.831
987.97894,140.4
988.35461,49.4755
988.73029,-35.1616
989.10596,-34.8046
989.48157,15.8016
989.85724,-5.7676
990.23291,104.292
990.60858,153.947
990.98419,-37.2055
991.35986,-40.671
991.73553,-3.46075
992.11121,-15.9324
992.48688,2.92925
992.86249,-37.2345
993.23816,-112.78
993.61383,-79.5481
993.9895,104.807
994.36511,81.4351
994.74078,104.638
995.11646,375.462
995.49213,567.637
995.86774,427.371
996.24341,359.282
996.61908,556.572
996.99475,467.62
997.37042,419.558
997.74603,475.624
998.1217,487.474
998.49738,592.705
998.87305,573.214
999.24866,414.47
999.62433,306.353
1000,224.324
