Date and Time:                Thu Dec 2 20:19:41.000 2021
Software Version:             4.31.30023.0
Temperature (C):              -50
Model:                        DU420_BVF
Data Type:                    Counts (Bg Corrected)
Acquisition Mode:             Accumulate
Trigger Mode:                 Internal
Exposure Time (secs):         0.09999
Accumulate Cycle Time (secs): 0.09999
Frequency (Hz):               10.001
Number of Accumulations:      1000
Readout Mode:                 Full Vertical Binning
Horizontal binning:           1
Extended Dynamic Range:       off
Horizontally flipped:         false
Vertical Shift Speed (usecs): 8.25
Pixel Readout Time (usecs):   30.303
Serial Number:                CCD-22942
Pre-Amplifier Gain:           1x
Spurious Noise Filter Mode:   No Filter
Photon counted:               false
Data Averaging Filter Mode:   No Filter
KY328i:
Serial Number:                
Wavelength (nm):              924.465
Grating Groove Density (l/mm):150.012
Grating Blaze:                500nm
Output Flipper Port:          Direct
Filter:                       6-785 LP



350,591.669
350.53488,588.067
351.06976,593.142
351.60464,589.179
352.13953,587.671
352.67441,593.371
353.20929,591.603
353.7442,592.053
354.27908,589.502
354.81396,590.969
355.34885,592.601
355.88373,589.92
356.41861,591.05
356.95349,592.754
357.48837,593.276
358.02325,586.221
358.55814,588.696
359.09302,593.444
359.6279,589.803
360.16278,587.839
360.69766,591.652
361.23257,588.161
361.76746,589.653
362.30234,585.949
362.83722,591.579
363.3721,592.848
363.90698,589.99
364.44186,588.335
364.97675,585.27
365.51163,591.671
366.04651,592.671
366.58139,588.828
367.11627,590.249
367.65115,590.186
368.18604,588.672
368.72095,587.609
369.25583,592.373
369.79071,591.33
370.32559,591.138
370.86047,593.562
371.39536,592.025
371.93024,588.212
372.46512,591.737
373,592.561
373.53488,592.567
374.06976,591.586
374.60464,589.076
375.13953,589.952
375.67441,588.152
376.20932,590.974
376.7442,594.725
377.27908,590.835
377.81396,587.959
378.34885,590.675
378.88373,592.216
379.41861,589.676
379.95349,591.616
380.48837,591.887
381.02325,594.097
381.55814,590.121
382.09302,588.645
382.6279,589.374
383.16278,590.386
383.69766,591.907
384.23257,587.213
384.76746,591.12
385.30234,591.344
385.83722,590.879
386.3721,590.717
386.90698,589.825
387.44186,589.186
387.97675,591.383
388.51163,591.346
389.04651,588.906
389.58139,591.987
390.11627,586.034
390.65115,592.589
391.18604,591.944
391.72095,592.089
392.25583,588.269
392.79071,590.761
393.32559,586.748
393.86047,590.535
394.39536,592.188
394.93024,590.058
395.46512,590.679
396,590.897
396.53488,593.464
397.06976,589.031
397.60464,584.879
398.13953,589.298
398.67441,593.679
399.20932,594.858
399.7442,593.3
400.27908,589.606
400.81396,588.744
401.34885,590.455
401.88373,593.496
402.41861,596.735
402.95349,595.301
403.48837,594.016
404.02325,592.966
404.55814,590.355
405.09302,591.441
405.6279,592.835
406.16278,594.304
406.69769,589.575
407.23257,594.977
407.76746,591.161
408.30234,588.298
408.83722,588.582
409.3721,588.221
409.90698,588.164
410.44186,594.62
410.97675,594.733
411.51163,589.578
412.04651,590.678
412.58139,591.8
413.11627,590.829
413.65115,590.056
414.18607,592.049
414.72095,588.114
415.25583,589.388
415.79071,595.538
416.32559,592.991
416.86047,591.768
417.39536,589.076
417.93024,590.83
418.46512,588.253
419,590.217
419.53488,591.499
420.06976,587.992
420.60464,589.258
421.13953,590.13
421.67441,593.4
422.20932,595.375
422.7442,592.416
423.27908,591.921
423.81396,592.37
424.34885,593.007
424.88373,590.188
425.41861,589.93
425.95349,591.232
426.48837,590.94
427.02325,590.855
427.55814,592.441
428.09302,591.848
428.6279,589.511
429.16278,587.87
429.69769,591.093
430.23257,593.955
430.76746,592.292
431.30234,590.994
431.83722,588.271
432.3721,590.786
432.90698,591.571
433.44186,592.249
433.97675,588.094
434.51163,591.08
435.04651,592.685
435.58139,586.988
436.11627,589.469
436.65115,592.091
437.18607,590.318
437.72095,589.091
438.25583,588.404
438.79071,590.352
439.32559,592.606
439.86047,591.36
440.39536,590.407
440.93024,590.88
441.46512,589.736
442,589.627
442.53488,587.823
443.06976,593.419
443.60464,593.558
444.13953,588.38
444.67444,590.603
445.20932,589.627
445.7442,591.382
446.27908,592.535
446.81396,589.865
447.34885,588.443
447.88373,593.598
448.41861,593.95
448.95349,592.266
449.48837,592.041
450.02325,590.504
450.55814,590.747
451.09302,591.318
451.6279,588.984
452.16278,591.726
452.69769,589.166
453.23257,589.312
453.76746,591.402
454.30234,593.333
454.83722,592.479
455.3721,591.311
455.90698,588.645
456.44186,590.532
456.97675,591.501
457.51163,591.616
458.04651,592.189
458.58139,589.519
459.11627,593.913
459.65115,591.623
460.18607,589.56
460.72095,591.66
461.25583,591.471
461.79071,588.553
462.32559,590.361
462.86047,589.06
463.39536,592.658
463.93024,594.783
464.46512,592.531
465,593.263
465.53488,592.225
466.06976,588.024
466.60464,591.87
467.13953,591.473
467.67444,590.801
468.20932,593.431
468.7442,593.479
469.27908,590.864
469.81396,589.85
470.34885,593.17
470.88373,592.576
471.41861,589.406
471.95349,591.656
472.48837,592.536
473.02325,590.693
473.55814,591.955
474.09302,593.057
474.6279,595.904
475.16281,590.483
475.69769,586.49
476.23257,591.753
476.76746,592.389
477.30234,592.54
477.83722,597.092
478.3721,591.392
478.90698,591.767
479.44186,591.547
479.97675,592.699
480.51163,590.63
481.04651,592.497
481.58139,587.365
482.11627,589.802
482.65118,595.228
483.18607,589.263
483.72095,586.935
484.25583,589.045
484.79071,590.686
485.32559,588.364
485.86047,594.517
486.39536,592.31
486.93024,589.442
487.46512,591.612
488,589.378
488.53488,595.257
489.06976,591.482
489.60464,590.153
490.13953,589.489
490.67444,593.667
491.20932,589.984
491.7442,590.869
492.27908,593.191
492.81396,596.609
493.34885,591.646
493.88373,591.048
494.41861,593.526
494.95349,595.421
495.48837,594.042
496.02325,590.717
496.55814,594.413
497.09302,592.081
497.6279,591.499
498.16281,590.818
498.69769,591.626
499.23257,592.305
499.76746,590.471
500.30234,589.856
500.83722,589.144
501.3721,591.379
501.90698,595.066
502.44186,587.515
502.97675,590.928
503.51163,597.497
504.04651,591.826
504.58139,590.37
505.11627,594.318
505.65118,593.804
506.18607,592.754
506.72095,591.732
507.25583,592.707
507.79071,592.078
508.32559,591.934
508.86047,593.603
509.39536,591.599
509.93024,592.884
510.46512,595.301
511,592.012
511.53488,589.177
512.06976,593.026
512.60468,592.893
513.13953,590.65
513.67444,593.041
514.20929,587.01
514.7442,591.67
515.27905,595.339
515.81396,593.921
516.34882,590.87
516.88373,591.665
517.41864,596.787
517.95349,593.327
518.4884,591.123
519.02325,592.003
519.55817,592.323
520.09302,592.456
520.62793,588.402
521.16278,587.566
521.69769,592.475
522.23254,593.182
522.76746,592.611
523.30231,594.84
523.83722,590.165
524.37207,592.011
524.90698,595.572
525.44189,591.877
525.97675,591.557
526.51166,590.471
527.04651,590.731
527.58142,591.972
528.11627,591.029
528.65118,587.073
529.18604,587.091
529.72095,595.266
530.2558,597.487
530.79071,591.181
531.32556,601.27
531.86047,596.417
532.39539,594.282
532.93024,592.644
533.46515,593.924
534,597.191
534.53491,591.344
535.06976,592.274
535.60468,596.786
536.13953,593.089
536.67444,589.708
537.20929,591.967
537.7442,595.353
538.27905,592.957
538.81396,588.98
539.34882,593.853
539.88373,597.876
540.41864,594.591
540.95349,593.75
541.4884,593.299
542.02325,598.689
542.55817,595.071
543.09302,597.439
543.62793,597.051
544.16278,597.236
544.69769,598.423
545.23254,592.153
545.76746,596.954
546.30231,589.208
546.83722,593.28
547.37213,598.682
547.90698,593.156
548.44189,599.338
548.97675,596.71
549.51166,592.329
550.04651,596.067
550.58142,595.878
551.11627,594.546
551.65118,598.212
552.18604,600.074
552.72095,598.38
553.2558,594.318
553.79071,595.44
554.32556,595.948
554.86047,602.448
555.39539,598.474
555.93024,599.202
556.46515,605.411
557,597.746
557.53491,596.537
558.06976,599.703
558.60468,597.493
559.13953,597.21
559.67444,599.763
560.20929,601.037
560.7442,605.574
561.27905,602.416
561.81396,601.914
562.34882,602.73
562.88373,601.871
563.41864,601.159
563.95349,601.855
564.4884,601.973
565.02325,603.589
565.55817,601.609
566.09302,603.4
566.62793,603.22
567.16278,606.03
567.69769,603.194
568.23254,601.991
568.76746,606.084
569.30231,599.471
569.83722,601.398
570.37213,601.948
570.90698,609.129
571.44189,605.455
571.97675,601.859
572.51166,601.043
573.04651,609.201
573.58142,611.414
574.11627,606.075
574.65118,605.86
575.18604,604.044
575.72095,606.97
576.2558,605.49
576.79071,606.271
577.32556,613.271
577.86047,614.616
578.39539,605.512
578.93024,610.258
579.46515,611.719
580,606.934
580.53491,604.012
581.06976,615.433
581.60468,609.244
582.13953,607.054
582.67444,614.016
583.20929,610.161
583.7442,611.131
584.27905,611.514
584.81396,613.261
585.34888,612.781
585.88373,607.257
586.41864,607.495
586.95349,616.567
587.4884,613.229
588.02325,615.716
588.55817,611.255
589.09302,614.994
589.62793,614.521
590.16278,619.769
590.69769,613.534
591.23254,613.411
591.76746,614.329
592.30231,617.805
592.83722,613.323
593.37213,614.429
593.90698,617.83
594.44189,624.245
594.97675,614.658
595.51166,610.83
596.04651,616.708
596.58142,615.492
597.11627,615.17
597.65118,611.787
598.18604,614.255
598.72095,620.365
599.2558,617.3
599.79071,614.003
600.32556,608.974
600.86047,613.529
601.39539,617.27
601.93024,618.242
602.46515,619.92
603,621.744
603.53491,619.815
604.06976,613.441
604.60468,620.894
605.13953,618.305
605.67444,615.237
606.20929,620.261
606.7442,618.072
607.27905,613.878
607.81396,620.386
608.34888,619.452
608.88373,619.84
609.41864,619.988
609.95349,616.143
610.4884,615.7
611.02325,611.289
611.55817,609.225
612.09302,613.302
612.62793,612.405
613.16278,611.521
613.69769,616.086
614.23254,616.204
614.76746,618.705
615.30231,622.112
615.83722,618.907
616.37213,622.864
616.90698,616.11
617.44189,615.76
617.97675,620
618.51166,615.171
619.04651,610.295
619.58142,619.442
620.11627,617.672
620.65118,616.685
621.18604,620.46
621.72095,616.592
622.2558,625.764
622.79071,622.55
623.32556,617.767
623.86047,613.522
624.39539,619.043
624.93024,620.588
625.46515,615.899
626,620.33
626.53491,616.551
627.06976,615.004
627.60468,618.503
628.13953,619.236
628.67444,617.28
629.20929,616.01
629.7442,618.004
630.27905,623.019
630.81396,615.701
631.34888,613.891
631.88373,614.024
632.41864,613.658
632.95349,615.367
633.4884,621.284
634.02325,620.989
634.55817,617.203
635.09302,616.232
635.62793,616.85
636.16278,614.529
636.69769,624.731
637.23254,618.813
637.76746,617.891
638.30231,618.977
638.83722,618.034
639.37213,616.013
639.90698,609.271
640.44189,617.245
640.97675,617.218
641.51166,615.634
642.04651,621.9
642.58142,618.337
643.11627,619.773
643.65118,618.56
644.18604,608.918
644.72095,616.549
645.2558,615.251
645.79071,613.25
646.32562,617.348
646.86047,616.037
647.39539,616.02
647.93024,616.369
648.46515,616.807
649,613.932
649.53491,615.02
650.06976,614.989
650.60468,623.723
651.13953,617.068
651.67444,623.883
652.20929,621.53
652.7442,618.802
653.27905,624.286
653.81396,621.726
654.34888,622.408
654.88373,620.633
655.41864,615.62
655.95349,613.534
656.4884,618.27
657.02325,615.457
657.55817,622.234
658.09302,622.543
658.62793,615.744
659.16278,616.577
659.69769,619.483
660.23254,617.489
660.76746,619.877
661.30231,618.147
661.83722,611.385
662.37213,613.31
662.90698,616.268
663.44189,617.608
663.97675,615.51
664.51166,610.4
665.04651,613.77
665.58142,614.851
666.11627,618.264
666.65118,614.963
667.18604,612.924
667.72095,616.251
668.2558,618.825
668.79071,613.804
669.32562,622.152
669.86047,619.227
670.39539,613.664
670.93024,616.221
671.46515,616.587
672,615.323
672.53491,615.487
673.06976,613.941
673.60468,613.803
674.13953,618.606
674.67444,616.039
675.20929,615.635
675.7442,614.416
676.27905,613.462
676.81396,615.657
677.34888,616.477
677.88373,618.249
678.41864,614.265
678.95349,613.207
679.4884,615.608
680.02325,616.518
680.55817,612.603
681.09302,611.09
681.62793,610.619
682.16278,613.987
682.69769,614.028
683.23254,608.584
683.76746,613.797
684.30237,615.53
684.83722,608.907
685.37213,615.699
685.90698,609.8
686.44189,612.666
686.97675,616.25
687.51166,617.348
688.04651,616.377
688.58142,612.284
689.11627,619.035
689.65118,618.342
690.18604,618.141
690.72095,616.719
691.2558,616.078
691.79071,613.968
692.32562,614.522
692.86047,619.256
693.39539,621.099
693.93024,617.93
694.46515,613.537
695,618.137
695.53491,613.618
696.06976,621.025
696.60468,612.602
697.13953,611.462
697.67444,611.805
698.20929,609.417
698.7442,612.395
699.27905,603.889
699.81396,601.249
700.34888,607.863
700.88373,609.413
701.41864,607.581
701.95349,611.524
702.4884,610.192
703.02325,606.04
703.55817,607.448
704.09302,605.688
704.62793,611.306
705.16278,614.292
705.69769,612.395
706.23254,608.949
706.76746,608.542
707.30237,613.272
707.83722,602.391
708.37213,606.86
708.90698,602.071
709.44189,601.661
709.97675,606.237
710.51166,605.945
711.04651,608.468
711.58142,609.51
712.11627,615.014
712.65118,612.513
713.18604,607.682
713.72095,608.06
714.2558,612.75
714.79071,614.728
715.32562,610.822
715.86047,610.397
716.39539,615.533
716.93024,615.386
717.46515,613.918
718,612.42
718.53491,613.804
719.06976,609.078
719.60468,611.412
720.13953,614.023
720.67444,607.506
721.20929,609.893
721.7442,608.489
722.27911,610.391
722.81396,609.017
723.34888,607.418
723.88373,610.918
724.41864,605.394
724.95349,608.941
725.4884,612.97
726.02325,608.127
726.55817,607.615
727.09302,606.088
727.62793,612.349
728.16278,607.763
728.69769,603.943
729.23254,608.603
729.76746,608.185
730.30237,608.971
730.83722,608.256
731.37213,609.242
731.90698,607.019
732.44189,607.341
732.97675,606.945
733.51166,615.207
734.04651,611.034
734.58142,614.099
735.11627,610.074
735.65118,608.468
736.18604,610.332
736.72095,607.07
737.2558,611.755
737.79071,615.119
738.32562,607.586
738.86047,609.769
739.39539,609.434
739.93024,605.884
740.46515,609.231
741,609.482
741.53491,605.194
742.06976,605.9
742.60468,606.89
743.13953,608.503
743.67444,611.628
744.20929,612.91
744.7442,613.904
745.27911,606.375
745.81396,608.066
746.34888,606.275
746.88373,609.086
747.41864,609.373
747.95349,608.089
748.4884,608.416
749.02325,606.945
749.55817,610.29
750.09302,608.094
750.62793,605.998
751.16278,606.541
751.69769,609.451
752.23254,609.719
752.76746,601.547
753.30237,604.493
753.83722,607.813
754.37213,611.457
754.90698,603.917
755.44189,606.685
755.97675,606.648
756.51166,607.629
757.04651,602.266
757.58142,604.109
758.11627,605.909
758.65118,608.05
759.18604,601.152
759.72095,606.36
760.25586,604.937
760.79071,603.296
761.32562,601.185
761.86047,607.952
762.39539,608.79
762.93024,604.133
763.46515,600.399
764,605.33
764.53491,601.413
765.06976,607.067
765.60468,610.827
766.13953,609.566
766.67444,612.604
767.20929,608.133
767.7442,617.026
768.27911,624.777
768.81396,618.593
769.34888,617.86
769.88373,615.881
770.41864,610.51
770.95349,611.685
771.4884,605.836
772.02325,608.967
772.55817,607.179
773.09302,603.799
773.62793,604.343
774.16278,601.766
774.69769,604.2
775.23254,606.626
775.76746,607.528
776.30237,600.827
776.83722,603.166
777.37213,607.154
777.90698,604.826
778.44189,597.537
778.97675,595.515
779.51166,598.671
780.04651,600.813
780.58142,604.15
781.11627,600.543
781.65118,601.005
782.18604,602.434
782.72095,602.408
783.25586,596.926
783.79071,596.72
784.32562,602.337
784.86047,599.074
785.39539,597.045
785.93024,599.396
786.46515,593.702
787,602.878
787.53491,603.342
788.06976,599.106
788.60468,597.786
789.13953,596.194
789.67444,604.055
790.20929,600.74
790.7442,597.876
791.27911,601.028
791.81396,601.951
792.34888,599.439
792.88373,604.384
793.41864,606.491
793.95349,604.239
794.4884,604.396
795.02325,599.851
795.55817,602.617
796.09302,601.628
796.62793,600.805
797.16278,601.613
797.69769,599.658
798.23254,602.565
798.76746,597.88
799.30237,600.625
799.83722,595.808
800.37213,606.587
800.90698,604.092
801.44189,601.551
801.97675,598.752
802.51166,605.626
803.04651,604.575
803.58142,597.537
804.11627,601.758
804.65118,606.702
805.18604,604.818
805.72095,600.349
806.25586,601.788
806.79071,603.889
807.32562,599.562
807.86047,597.407
808.39539,600.192
808.93024,599.896
809.46515,598.423
810,602.235
810.53491,600.884
811.06976,598.035
811.60468,603.335
812.13953,600.12
812.67444,604.49
813.20929,599.14
813.7442,600.868
814.27911,602.338
814.81396,607.73
815.34888,601.702
815.88373,598.252
816.41864,599.577
816.95349,605.587
817.4884,599.937
818.02325,597.44
818.55817,600.93
819.09302,602.449
819.62793,604.437
820.16278,602.408
820.69769,604.337
821.2326,600.36
821.76746,600.573
822.30237,606.55
822.83722,604.712
823.37213,599.065
823.90698,605.485
824.44189,608.949
824.97675,614.94
825.51166,614.625
826.04651,650.269
826.58142,711.274
827.11627,736.245
827.65118,756.455
828.18604,732.568
828.72095,708.416
829.25586,696.281
829.79071,669.592
830.32562,655.647
830.86047,656.851
831.39539,663.634
831.93024,665.236
832.46515,651.663
833,648.747
833.53491,641.361
834.06976,626.319
834.60468,619.522
835.13953,615.303
835.67444,609.124
836.20929,606.356
836.7442,603.995
837.27911,607.124
837.81396,625.916
838.34888,626.309
838.88373,632.097
839.41864,625.088
839.95349,619.628
840.4884,615.106
841.02325,608.808
841.55817,607.604
842.09302,606.074
842.62793,600.263
843.16278,596.499
843.69769,601.443
844.2326,605.321
844.76746,607.566
845.30237,608.731
845.83722,600.863
846.37213,601.522
846.90698,596.753
847.44189,594.719
847.97675,596.097
848.51166,599.401
849.04651,600.31
849.58142,595.408
850.11627,595.713
850.65118,592.342
851.18604,594.298
851.72095,593.58
852.25586,592.648
852.79071,591.502
853.32562,592.827
853.86047,597.126
854.39539,595.629
854.93024,595.192
855.46515,592.599
856,593.469
856.53491,594.863
857.06976,594.178
857.60468,591.581
858.13953,594.343
858.67444,598.187
859.20935,591.746
859.7442,593.594
860.27911,595.245
860.81396,596.178
861.34888,594.033
861.88373,592.944
862.41864,595.235
862.95349,594.005
863.4884,591.613
864.02325,593.884
864.55817,592.182
865.09302,591.467
865.62793,593.739
866.16278,593.203
866.69769,593.192
867.2326,592.996
867.76746,593.08
868.30237,593.573
868.83722,593.459
869.37213,592.923
869.90698,594.552
870.44189,594.3
870.97675,593.122
871.51166,592.96
872.04651,593.802
872.58142,593.003
873.11627,596.419
873.65118,595.369
874.18604,593.652
874.72095,594.608
875.25586,596.21
875.79071,594.381
876.32562,596.094
876.86047,596.596
877.39539,593.948
877.93024,596.857
878.46515,594.47
879,596.16
879.53491,598.294
880.06976,595.02
880.60468,593.696
881.13953,599.215
881.67444,596.467
882.20935,592.648
882.7442,594.541
883.27911,597.243
883.81396,599.421
884.34888,603.692
884.88373,613.189
885.41864,641.615
885.95349,660.692
886.4884,676.037
887.02325,667.823
887.55817,652.184
888.09302,638.727
888.62793,625.343
889.16278,620.542
889.69769,617.925
890.2326,608.48
890.76746,604.713
891.30237,605.611
891.83722,602.151
892.37213,597.24
892.90698,597.487
893.44189,598.558
893.97675,599.029
894.51166,593.052
895.04651,597.106
895.58142,599.085
896.11627,601.533
896.65118,594.652
897.18604,593.473
897.72095,595.285
898.25586,599.682
898.79071,602.271
899.32562,608.4
899.86047,610.937
900.39539,603.567
900.93024,601.844
901.46515,602.599
902,601.792
902.53491,607.661
903.06976,599.234
903.60468,596.452
904.13953,594.329
904.67444,594.411
905.20935,596.992
905.7442,594.179
906.27911,594.051
906.81396,594.701
907.34888,595.727
907.88373,601.872
908.41864,605.741
908.95349,612.446
909.4884,608.03
910.02325,602.257
910.55817,603.31
911.09302,599.306
911.62793,599.022
912.16278,597.956
912.69769,592.907
913.2326,597.049
913.76746,596.965
914.30237,589.985
914.83722,592.27
915.37213,592.362
915.90698,595.563
916.44189,597.033
916.97675,594.943
917.51166,593.006
918.04651,595.641
918.58142,596.03
919.11627,598.125
919.65118,606.445
920.1861,605.501
920.72095,609.434
921.25586,608.791
921.79071,606.538
922.32562,601.383
922.86047,600.218
923.39539,596.838
923.93024,597.254
924.46515,597.578
925,594.844
925.53491,592.659
926.06976,599.642
926.60468,592.893
927.13953,593.37
927.67444,594.987
928.20935,592.303
928.7442,594.496
929.27911,593.508
929.81396,596.364
930.34888,593.489
930.88373,591.832
931.41864,592.291
931.95349,589.184
932.4884,592.024
933.02325,593.213
933.55817,593.232
934.09302,595.067
934.62793,592.421
935.16278,592.077
935.69769,595.266
936.2326,593.408
936.76746,592.054
937.30237,591.997
937.83722,591.067
938.37213,590.014
938.90698,591.106
939.44189,592.996
939.97675,595.118
940.51166,596.722
941.04651,595.134
941.58142,593.682
942.11627,592.2
942.65118,597.666
943.1861,598.039
943.72095,596.329
944.25586,596.186
944.79071,601.147
945.32562,598.615
945.86047,595.7
946.39539,596.912
946.93024,598.671
947.46515,592.79
948,591.757
948.53491,594.598
949.06976,592.479
949.60468,593.703
950.13953,595.587
950.67444,600.049
951.20935,596.544
951.7442,596.086
952.27911,595.607
952.81396,597.291
953.34888,598.043
953.88373,593.779
954.41864,598.8
954.95349,600.275
955.4884,594.053
956.02325,597.42
956.55817,602.471
957.09302,596.928
957.62793,594.471
958.16284,594.807
958.69769,600.533
959.2326,599.359
959.76746,594.994
960.30237,594.17
960.83722,593.545
961.37213,589.894
961.90698,589.89
962.44189,590.862
962.97675,593.982
963.51166,592.737
964.04651,591.43
964.58142,591.526
965.11627,594.245
965.65118,594.806
966.1861,592.664
966.72095,592.245
967.25586,594.238
967.79071,591.157
968.32562,590.343
968.86047,591.064
969.39539,593.63
969.93024,592.249
970.46515,591.029
971,592.659
971.53491,592.539
972.06976,596.317
972.60468,596.61
973.13953,593.357
973.67444,591.843
974.20935,592.192
974.7442,591.247
975.27911,589.77
975.81396,593.34
976.34888,597.428
976.88373,598.914
977.41864,596.927
977.95349,591.854
978.4884,591.318
979.02325,593.806
979.55817,591.868
980.09302,588.151
980.62793,586.945
981.16284,594.671
981.69769,596.017
982.2326,594.963
982.76746,597.766
983.30237,603.851
983.83722,607.555
984.37213,609.307
984.90698,603.584
985.44189,601.501
985.97675,603.28
986.51166,596.352
987.04651,595.883
987.58142,596.904
988.11627,593.506
988.65118,589.864
989.1861,589.368
989.72095,589.226
990.25586,594.298
990.79071,593.643
991.32562,591.877
991.86047,593.952
992.39539,596.003
992.93024,593.591
993.46515,590.136
994,593.552
994.53491,594.787
995.06976,594.042
995.60468,593.651
996.13959,596.22
996.67444,602.825
997.20935,601.713
997.7442,602.199
998.27911,598.308
998.81396,593.15
999.34888,597.583
999.88373,597.503
1000.4186,592.447
1000.9535,593.465
1001.4884,594.996
1002.0233,595.189
1002.5582,594.583
1003.093,589.258
1003.6279,590.127
1004.1628,591.041
1004.6977,590.84
1005.2326,591.633
1005.7675,594.358
1006.3024,591.353
1006.8372,589.315
1007.3721,591.04
1007.907,589.724
1008.4419,590.335
1008.9767,588.575
1009.5117,589.072
1010.0465,590.348
1010.5814,589.134
1011.1163,590.513
1011.6512,590.787
1012.1861,593.834
1012.7209,589.497
1013.2559,591.031
1013.7907,595.088
1014.3256,590.704
1014.8605,590.419
1015.3954,587.756
1015.9302,595.547
1016.4651,591.158
1017,590.793
1017.5349,593.324
1018.0698,592.506
1018.6047,591.089
1019.1396,592.162
1019.6744,591.898
1020.2094,592.676
1020.7442,590.846
1021.2791,589.735
1021.814,592.313
1022.3489,589.545
1022.8837,587.683
1023.4186,593.722
1023.9535,590.393
1024.4884,586.564
1025.0233,587.037
1025.5581,592.534
1026.093,591.163
1026.6279,593.497
1027.1628,594.134
1027.6978,593.335
1028.2325,589.547
1028.7675,590.571
1029.3024,591.082
1029.8373,590.898
1030.3721,590.134
1030.907,588.348
1031.4419,592.988
1031.9768,589.254
1032.5116,589.117
1033.0465,590.301
1033.5814,590.658
1034.1163,592.011
1034.6512,593.049
1035.186,588.056
1035.7209,590.39
1036.2559,592.449
1036.7908,591.992
1037.3256,591.38
1037.8605,587.471
1038.3954,592.866
1038.9303,589.132
1039.4651,589.634
1040,589.688
1040.5349,591.275
1041.0698,591.509
1041.6046,592.016
1042.1395,592.42
1042.6744,591.117
1043.2094,588.571
1043.7443,589.261
1044.2791,593.592
1044.814,593.392
1045.3489,590.752
1045.8838,588.199
1046.4186,593.034
1046.9535,591.506
1047.4884,590.674
1048.0233,585.82
1048.5581,587.685
1049.093,587.42
1049.6279,590.611
1050.1628,594.189
1050.6978,590.127
1051.2325,592.526
1051.7675,588.409
1052.3024,590.364
1052.8373,592.823
1053.3721,595.48
1053.907,593.676
1054.4419,588.783
1054.9768,592.526
1055.5116,589.57
1056.0465,589.016
1056.5814,592.893
1057.1163,589.51
1057.6512,588.777
1058.186,594.749
1058.7209,590.819
1059.2559,587.354
1059.7908,585.838
1060.3256,588.509
1060.8605,589.755
1061.3954,588.141
1061.9303,588.11
1062.4651,589.915
1063,591.023
1063.5349,592.577
1064.0698,592.604
1064.6047,593.259
1065.1395,588.471
1065.6744,593.938
1066.2094,589.495
1066.7443,594.147
1067.2791,590.48
1067.814,589.912
1068.3489,591.974
1068.8838,590.934
1069.4186,589.971
1069.9535,590.675
1070.4884,591.997
1071.0233,590.818
1071.5581,588.864
1072.093,588.547
1072.6279,590.255
1073.1628,592.251
1073.6978,588.969
1074.2325,589.537
1074.7675,591.088
1075.3024,589.347
1075.8373,590.374
1076.3721,589.457
1076.907,590.948
1077.4419,592.994
1077.9768,590.126
1078.5116,590.382
1079.0465,594.126
1079.5814,588.936
1080.1163,590.043
1080.6512,593.213
1081.186,592.723
1081.7209,591.816
1082.2559,589.121
1082.7908,590.818
1083.3256,591.862
1083.8605,590.395
1084.3954,589.978
1084.9303,589.908
1085.4651,588.988
1086,590.676
1086.5349,588.594
1087.0698,589.3
1087.6047,593.992
1088.1395,589.215
1088.6744,590.025
1089.2094,590.277
1089.7443,591.4
1090.2791,590.919
1090.814,587.918
1091.3489,591.617
1091.8838,593.758
1092.4186,590.586
1092.9535,589.298
1093.4884,592.607
1094.0233,593.781
1094.5581,589.339
1095.093,588.175
1095.6279,592.661
1096.1628,589.126
1096.6978,590.108
1097.2325,591.836
1097.7675,590.7
1098.3024,590.531
1098.8373,590.804
1099.3721,589.439
1099.907,590.046
1100.4419,590.755
1100.9768,588.579
1101.5116,588.751
1102.0465,586.958
1102.5814,590.79
1103.1163,589.466
1103.6512,592.501
1104.186,591.954
1104.7209,591.992
1105.2559,591.585
1105.7908,590.48
1106.3256,591.096
1106.8605,588.686
1107.3954,592.457
1107.9303,588.441
1108.4651,589.723
1109,588.995
1109.5349,593.329
1110.0698,585.669
1110.6047,586.96
1111.1395,589.107
1111.6744,595.212
1112.2094,590.926
1112.7443,590.149
1113.2791,589.254
1113.814,590.042
1114.3489,590.139
1114.8838,589.961
1115.4186,589.837
1115.9535,589.705
1116.4884,590.142
1117.0233,595.372
1117.5581,590.699
1118.093,588.352
1118.6279,592.002
1119.1628,592.931
1119.6978,586.159
1120.2325,594.227
1120.7675,589.566
1121.3024,587.306
1121.8373,592.255
1122.3721,588.482
1122.907,587.773
1123.4419,590.671
1123.9768,591.705
1124.5116,591.112
1125.0465,589.319
1125.5814,592.791
1126.1163,592.542
1126.6512,588.28
1127.186,588.945
1127.7209,587.853
1128.2559,591.588
1128.7908,593.375
1129.3256,595.446
1129.8605,590.829
1130.3954,589.132
1130.9303,589.783
1131.4651,589.855
1132,590.67
1132.5349,589.032
1133.0698,588.38
1133.6047,588.874
1134.1395,592.264
1134.6744,591.086
1135.2094,587.989
1135.7443,590.251
1136.2791,592.996
1136.814,593.097
1137.3489,590.644
1137.8838,593.154
1138.4186,591.422
1138.9535,591.969
1139.4884,588.863
1140.0233,590.684
1140.5581,591.909
1141.093,588.441
1141.6279,593.461
1142.1628,595.909
1142.6978,589.97
1143.2325,586.579
1143.7675,589.811
1144.3024,593.36
1144.8373,592.036
1145.3721,592.396
1145.907,587.826
1146.4419,586.291
1146.9768,590.302
1147.5116,587.784
1148.0465,593.391
1148.5814,593.405
1149.1163,591.735
1149.6512,590.02
1150.186,590.037
1150.7209,588.309
1151.2559,586.674
1151.7908,590.145
1152.3256,590.608
1152.8605,592.457
1153.3954,591.086
1153.9303,592.874
1154.4651,590.43
1155,587.073
1155.5349,587.761
1156.0698,590.833
1156.6047,592.534
1157.1395,588.605
1157.6744,591.199
1158.2094,594.055
1158.7443,592.006
1159.2791,591.851
1159.814,589.073
1160.3489,590.06
1160.8838,589.724
1161.4186,587.386
1161.9535,587.847
1162.4884,592.546
1163.0233,591.172
1163.5582,592.545
1164.093,591.4
1164.6279,592.348
1165.1628,591.508
1165.6978,588.905
1166.2325,590.396
1166.7675,588.92
1167.3024,590.779
1167.8373,591.072
1168.3721,591.874
1168.907,589.912
1169.4419,588.18
1169.9768,588.786
1170.5116,588.779
1171.0465,596.155
1171.5814,592.517
1172.1163,588.442
1172.6512,587.559
1173.186,587.177
1173.7209,587.49
1174.2559,585.941
1174.7908,593.335
1175.3256,590.848
1175.8605,591.759
1176.3954,588.875
1176.9303,593.994
1177.4651,592.354
1178,589.789
1178.5349,591
1179.0698,591.078
1179.6047,590.574
1180.1395,589.54
1180.6744,592.173
1181.2094,591.663
1181.7443,588.917
1182.2791,587.081
1182.814,588.031
1183.3489,591.419
1183.8838,588.687
1184.4186,586.301
1184.9535,589.727
1185.4884,590.027
1186.0233,590.172
1186.5582,588.729
1187.093,592.679
1187.6279,590.469
1188.1628,588.064
1188.6978,588.785
1189.2325,590.498
1189.7675,593.927
1190.3024,590.622
1190.8373,591.154
1191.3721,590.732
1191.907,591.899
1192.4419,592.557
1192.9768,590.053
1193.5116,591.121
1194.0465,590.969
1194.5814,590.836
1195.1163,593.611
1195.6512,593.596
1196.186,590.57
1196.7209,589.927
1197.2559,590.066
1197.7908,584.213
1198.3256,591.974
1198.8605,594.917
1199.3954,591.642
1199.9303,590.18
1200.4651,589.316
1201,588.539
1201.5349,591.509
1202.0698,593.194
1202.6047,591.581
1203.1395,593.254
1203.6744,591.502
1204.2094,590.793
1204.7443,592.348
1205.2791,592.328
1205.814,588.575
1206.3489,587.386
1206.8838,590.616
1207.4186,591.909
1207.9535,587.665
1208.4884,591.781
1209.0233,592.766
1209.5582,588.625
1210.093,591.48
1210.6279,594.499
1211.1628,589.524
1211.6978,589.947
1212.2325,588.141
1212.7675,591.731
1213.3024,593.04
1213.8373,589.7
1214.3721,587.074
1214.907,591.77
1215.4419,593.16
1215.9768,593.764
1216.5116,590.905
1217.0465,591.464
1217.5814,592.038
1218.1163,593.983
1218.6512,587.703
1219.186,588.928
1219.7209,595.247
1220.2559,594.647
1220.7908,590.656
1221.3256,590.194
1221.8605,591.771
1222.3954,590.204
1222.9303,591.19
1223.4651,596.048
1224,591.744
1224.5349,589.574
1225.0698,589.815
1225.6047,589.313
1226.1395,588.957
1226.6744,590.989
1227.2094,587.592
1227.7443,590.203
1228.2791,590.636
1228.814,592.823
1229.3489,589.351
1229.8838,588.553
1230.4186,592.736
1230.9535,590.329
1231.4884,590.892
1232.0233,591.463
1232.5582,587.086
1233.093,592.786
1233.6279,592.93
1234.1628,587.751
1234.6978,594.475
1235.2325,589.691
1235.7675,590.429
1236.3024,590.979
1236.8373,591.544
1237.3721,588.177
1237.907,589.009
1238.4419,589.453
1238.9768,589.694
1239.5117,587.501
1240.0465,591.699
1240.5814,590.191
1241.1163,594.383
1241.6512,591.007
1242.186,587.5
1242.7209,588.518
1243.2559,588.588
1243.7908,588.854
1244.3256,591.155
1244.8605,589.086
1245.3954,591.457
1245.9303,587.927
1246.4651,594.513
1247,589.829
1247.5349,590.587
1248.0698,590.898
1248.6047,589.034
1249.1395,588.664
1249.6744,589.243
1250.2094,593.576
1250.7443,591.091
1251.2791,589.838
1251.814,590.011
1252.3489,589.712
1252.8838,589.05
1253.4186,591.912
1253.9535,593.131
1254.4884,594.851
1255.0233,589.005
1255.5582,590.878
1256.093,594.751
1256.6279,588.738
1257.1628,592.833
1257.6978,588.724
1258.2325,588.408
1258.7675,589.24
1259.3024,589.352
1259.8373,589.305
1260.3721,587.09
1260.907,590.614
1261.4419,589.051
1261.9768,592.381
1262.5117,589.203
1263.0465,590.909
1263.5814,591.66
1264.1163,590.873
1264.6512,589.37
1265.186,591.664
1265.7209,589.845
1266.2559,594.711
1266.7908,590.339
1267.3256,590.056
1267.8605,591.904
1268.3954,590.815
1268.9303,589.576
1269.4651,590.293
1270,589.917
1270.5349,593.734
1271.0698,592.185
1271.6047,589.23
1272.1395,591.718
1272.6744,589.296
1273.2094,592.27
1273.7443,589.868
1274.2791,592.582
1274.814,593.384
1275.3489,588.732
1275.8838,592.809
1276.4186,590.9
1276.9535,588.117
1277.4884,594.201
1278.0233,592.638
1278.5582,591.427
1279.093,587.449
1279.6279,591.483
1280.1628,593.112
1280.6978,589.968
1281.2325,589.129
1281.7675,591.971
1282.3024,591.779
1282.8373,590.102
1283.3721,590.159
1283.907,591.808
1284.4419,588.063
1284.9768,587.035
1285.5117,592.754
1286.0465,593.761
1286.5814,590.554
1287.1163,590.518
1287.6512,587.819
1288.186,589.552
1288.7209,589.72
1289.2559,591.123
1289.7908,590.181
1290.3256,588.595
1290.8605,588.508
1291.3954,589.24
1291.9303,593.404
1292.4651,593.255
1293,592.011
1293.5349,592.491
1294.0698,591.586
1294.6047,593.558
1295.1395,593.53
1295.6744,590.115
1296.2094,591.29
1296.7443,592.192
1297.2791,592.722
1297.814,587.998
1298.3489,591.833
1298.8838,591.628
1299.4186,589.792
1299.9535,591.554
1300.4884,591.967
1301.0233,590.907
1301.5582,588.459
1302.093,590.181
1302.6279,591.406
1303.1628,591.209
1303.6978,592.205
1304.2325,592.733
1304.7675,591.5
1305.3024,593.826
1305.8373,589.2
1306.3721,592.438
1306.907,590.766
1307.4419,588.794
1307.9768,594.578
1308.5117,589.726
1309.0465,588.725
1309.5814,588.151
1310.1163,594.179
1310.6512,591.531
1311.186,589.03
1311.7209,588.079
1312.2559,593.118
1312.7908,588.134
1313.3256,591.154
1313.8605,590.298
1314.3954,591.767
1314.9303,593.053
1315.4651,595.682
1316,590.444
1316.5349,590.354
1317.0698,590.269
1317.6047,588.564
1318.1395,591.039
1318.6744,589.937
1319.2094,589.31
1319.7443,590.271
1320.2791,589.661
1320.814,590.798
1321.3489,592.407
1321.8838,591.351
1322.4186,596.186
1322.9535,588.495
1323.4884,591.818
1324.0233,589.985
1324.5582,590.175
1325.093,591.716
1325.6279,587.776
1326.1628,589.256
1326.6978,590.827
1327.2325,590.897
1327.7675,587.38
1328.3024,585.843
1328.8373,589.635
1329.3721,589.706
1329.907,590.252
1330.4419,591.994
1330.9768,588.251
1331.5117,590.307
1332.0465,592.941
1332.5814,592.109
1333.1163,590.008
1333.6512,589.092
1334.186,592.219
1334.7209,591.721
1335.2559,591.327
1335.7908,591.084
1336.3256,589.982
1336.8605,590.605
1337.3954,591.864
1337.9303,592.797
1338.4652,590.816
1339,590.879
1339.5349,590.491
1340.0698,591.224
1340.6047,590.026
1341.1395,590.947
1341.6744,589.253
1342.2094,586.97
1342.7443,590.901
1343.2791,586.18
1343.814,593.83
1344.3489,593.661
1344.8838,591.014
1345.4186,589.136
1345.9535,592.349
1346.4884,591.503
1347.0233,587.788
1347.5582,589.43
1348.093,588.988
1348.6279,592.077
1349.1628,590.938
1349.6978,589.676
1350.2325,591.132
1350.7675,588.95
1351.3024,592
1351.8373,590.11
1352.3721,594.873
1352.907,589.94
1353.4419,591.34
1353.9768,586.917
1354.5117,591.483
1355.0465,590.194
1355.5814,589.588
1356.1163,591.166
1356.6512,591.325
1357.186,589.463
1357.7209,588.985
1358.2559,591.397
1358.7908,594.179
1359.3256,589.51
1359.8605,589.116
1360.3954,586.905
1360.9303,595.071
1361.4652,589.542
1362,589.222
1362.5349,591.625
1363.0698,590.527
1363.6047,588.249
1364.1395,593.76
1364.6744,590.036
1365.2094,590.561
1365.7443,590.74
1366.2791,588.185
1366.814,592.126
1367.3489,591.631
1367.8838,591.497
1368.4186,593.921
1368.9535,592.266
1369.4884,589.996
1370.0233,592.065
1370.5582,593
1371.093,593.108
1371.6279,592.347
1372.1628,588.453
1372.6978,589.893
1373.2325,592.815
1373.7675,592.266
1374.3024,593.617
1374.8373,593.894
1375.3721,590.317
1375.907,595.21
1376.4419,591.492
1376.9768,591.297
1377.5117,592.237
1378.0465,590.176
1378.5814,589.9
1379.1163,594.005
1379.6512,590.873
1380.186,593.639
1380.7209,593.988
1381.2559,590.884
1381.7908,592.062
1382.3256,588.44
1382.8605,592.878
1383.3954,591.279
1383.9303,591.212
1384.4652,593.164
1385,591.589
1385.5349,588.785
1386.0698,590.058
1386.6047,588.756
1387.1395,592.971
1387.6744,589.924
1388.2094,597.03
1388.7443,589.277
1389.2791,589.23
1389.814,596.658
1390.3489,590.76
1390.8838,592.768
1391.4186,591.144
1391.9535,591.588
1392.4884,591.708
1393.0233,590.186
1393.5582,590.128
1394.093,590.39
1394.6279,590.692
1395.1628,590.967
1395.6978,591.9
1396.2325,590.446
1396.7675,585.931
1397.3024,592.027
1397.8373,587.902
1398.3721,592.883
1398.907,594.22
1399.4419,589.847
1399.9768,590.517
1400.5117,592.065
1401.0465,593.351
1401.5814,593.045
1402.1163,592.08
1402.6512,588.956
1403.186,595.379
1403.7209,591.801
1404.2559,588.62
1404.7908,590.994
1405.3256,589.019
1405.8605,591.92
1406.3954,590.883
1406.9303,586.965
1407.4652,590.686
1408,591.056
1408.5349,587.435
1409.0698,591.404
1409.6047,591.69
1410.1395,592.562
1410.6744,589.922
1411.2094,591.551
1411.7443,589.556
1412.2791,588.527
1412.814,593.756
1413.3489,589.989
1413.8838,589.435
1414.4186,593.021
1414.9535,590.033
1415.4884,590.959
1416.0233,588.009
1416.5582,591.392
1417.093,590.3
1417.6279,590.193
1418.1628,593.588
1418.6978,590.989
1419.2325,591.62
1419.7675,588.564
1420.3024,592.681
1420.8373,593.779
1421.3721,590.572
1421.907,593.622
1422.4419,592.166
1422.9768,594.043
1423.5117,590.12
1424.0465,592.963
1424.5814,589.811
1425.1163,588.478
1425.6512,593.79
1426.186,586.975
1426.7209,589.953
1427.2559,593.053
1427.7908,590.918
1428.3256,591.487
1428.8605,589.614
1429.3954,590.527
1429.9303,586.82
1430.4652,591.224
1431,593.347
1431.5349,592.919
1432.0698,591.75
1432.6047,585.77
1433.1395,596.888
1433.6744,593.613
1434.2094,586.857
1434.7443,590.866
1435.2791,594.168
1435.814,590.223
1436.3489,585.491
1436.8838,588.581
1437.4187,589.522
1437.9535,593.549
1438.4884,589.832
1439.0233,587.347
1439.5582,593.214
1440.093,588.447
1440.6279,586.883
1441.1628,594.826
1441.6978,588.438
1442.2325,588.958
1442.7675,596.081
1443.3024,591.328
1443.8373,589.433
1444.3721,593.414
1444.907,590.755
1445.4419,589.997
1445.9768,593.636
1446.5117,589.152
1447.0465,591.735
1447.5814,594.043
1448.1163,595.143
1448.6512,592.921
1449.186,589.022
1449.7209,596.732
1450.2559,590.401
1450.7908,594.834
1451.3256,590.972
1451.8605,590.2
1452.3954,592.866
1452.9303,589.856
1453.4652,591.093
1454,589.298
1454.5349,590.323
1455.0698,593.338
1455.6047,593.433
1456.1395,593.536
1456.6744,588.96
1457.2094,589.959
1457.7443,589.982
1458.2791,587.049
1458.814,588.694
1459.3489,589.815
1459.8838,592.034
1460.4187,590.049
1460.9535,593.763
1461.4884,586.739
1462.0233,590.554
1462.5582,587.38
1463.093,589.385
1463.6279,595.901
1464.1628,588.223
1464.6978,590.673
1465.2325,592.203
1465.7675,591.83
1466.3024,587.781
1466.8373,589.177
1467.3721,589.409
1467.907,588.736
1468.4419,591.816
1468.9768,592.027
1469.5117,590.986
1470.0465,590.977
1470.5814,591.216
1471.1163,591.553
1471.6512,590.698
1472.186,592.366
1472.7209,590.099
1473.2559,593.367
1473.7908,589.919
1474.3256,590.475
1474.8605,593.559
1475.3954,592.001
1475.9303,587.256
1476.4652,590.644
1477,587.358
1477.5349,590.522
1478.0698,595.018
1478.6047,589.17
1479.1395,596.94
1479.6744,589.446
1480.2094,592.794
1480.7443,592.109
1481.2791,587.682
1481.814,590.85
1482.3489,592.255
1482.8838,588.395
1483.4187,589.046
1483.9535,589.923
1484.4884,593.306
1485.0233,587.976
1485.5582,588.65
1486.093,588.023
1486.6279,589.96
1487.1628,590.049
1487.6978,593.944
1488.2325,589.754
1488.7675,591.231
1489.3024,588.862
1489.8373,590.586
1490.3721,597.196
1490.907,592.016
1491.4419,588.236
1491.9768,590.599
1492.5117,589.718
1493.0465,588.244
1493.5814,590.308
1494.1163,593.81
1494.6512,591.434
1495.186,590.859
1495.7209,592.976
1496.2559,592.965
1496.7908,591.908
1497.3256,592.307
1497.8605,593.98
1498.3954,590.801
1498.9303,587.337
1499.4652,587.079
1500,592.647
