Date and Time:                Thu Dec 2 23:00:24.000 2021
Software Version:             4.31.30023.0
Temperature (C):              -50
Model:                        DU420_BVF
Data Type:                    Counts (Bg Corrected)
Acquisition Mode:             Accumulate
Trigger Mode:                 Internal
Exposure Time (secs):         0.09999
Accumulate Cycle Time (secs): 0.09999
Frequency (Hz):               10.001
Number of Accumulations:      1000
Readout Mode:                 Full Vertical Binning
Horizontal binning:           1
Extended Dynamic Range:       off
Horizontally flipped:         false
Vertical Shift Speed (usecs): 8.25
Pixel Readout Time (usecs):   30.303
Serial Number:                CCD-22942
Pre-Amplifier Gain:           1x
Spurious Noise Filter Mode:   No Filter
Photon counted:               false
Data Averaging Filter Mode:   No Filter
KY328i:
Serial Number:                
Wavelength (nm):              924.465
Grating Groove Density (l/mm):150.012
Grating Blaze:                500nm
Output Flipper Port:          Direct
Filter:                       6-785 LP



350,589.382
350.53488,592.684
351.06976,590.949
351.60464,592.918
352.13953,594.53
352.67441,589.338
353.20929,589.197
353.7442,591.536
354.27908,588.53
354.81396,592.092
355.34885,588.454
355.88373,588.528
356.41861,591.957
356.95349,588.667
357.48837,590.66
358.02325,589.006
358.55814,587.605
359.09302,588.956
359.6279,587.399
360.16278,589.442
360.69766,586.712
361.23257,585.736
361.76746,589.887
362.30234,589.495
362.83722,588.108
363.3721,594.334
363.90698,590.191
364.44186,590.235
364.97675,586.899
365.51163,592.86
366.04651,592.418
366.58139,592.778
367.11627,592.007
367.65115,591.086
368.18604,588.308
368.72095,590.879
369.25583,593.436
369.79071,592.341
370.32559,592.001
370.86047,591.426
371.39536,590.951
371.93024,590.873
372.46512,591.49
373,587.761
373.53488,588.868
374.06976,592.045
374.60464,590.384
375.13953,587.932
375.67441,592.626
376.20932,587.256
376.7442,584.307
377.27908,588.857
377.81396,590.221
378.34885,590.776
378.88373,589.178
379.41861,594.814
379.95349,593.009
380.48837,584.959
381.02325,589.269
381.55814,587.488
382.09302,588.014
382.6279,589.932
383.16278,590.855
383.69766,589.887
384.23257,589.241
384.76746,590.549
385.30234,587.727
385.83722,590.17
386.3721,591.077
386.90698,591.135
387.44186,588.667
387.97675,588.511
388.51163,589.996
389.04651,591.052
389.58139,588.137
390.11627,588.533
390.65115,587.978
391.18604,592.341
391.72095,587.86
392.25583,588.512
392.79071,589.329
393.32559,588.733
393.86047,592.685
394.39536,592.825
394.93024,592.982
395.46512,588.715
396,591.245
396.53488,587.625
397.06976,590.208
397.60464,591.117
398.13953,590.98
398.67441,590.659
399.20932,588.272
399.7442,590.594
400.27908,592.186
400.81396,592.248
401.34885,588.964
401.88373,586.828
402.41861,590.438
402.95349,590.234
403.48837,589.983
404.02325,586.275
404.55814,590.404
405.09302,587.256
405.6279,589.717
406.16278,592.36
406.69769,587.381
407.23257,592.15
407.76746,590.949
408.30234,590.834
408.83722,589.549
409.3721,591.219
409.90698,592.393
410.44186,592.132
410.97675,593.971
411.51163,592.029
412.04651,589.912
412.58139,591.49
413.11627,589.185
413.65115,587.29
414.18607,593.346
414.72095,590.808
415.25583,585.828
415.79071,590.757
416.32559,593.242
416.86047,591.191
417.39536,591.168
417.93024,587.259
418.46512,593.436
419,593.388
419.53488,588.852
420.06976,587.189
420.60464,594.131
421.13953,589.147
421.67441,587.629
422.20932,589.059
422.7442,592.913
423.27908,594.149
423.81396,591.244
424.34885,589.231
424.88373,588.665
425.41861,587.133
425.95349,589.109
426.48837,590.948
427.02325,589.613
427.55814,590.667
428.09302,593.119
428.6279,592.149
429.16278,592.049
429.69769,591.263
430.23257,592.611
430.76746,589.541
431.30234,590.772
431.83722,594.74
432.3721,590.962
432.90698,591.607
433.44186,592.655
433.97675,587.693
434.51163,591.433
435.04651,591.504
435.58139,592.063
436.11627,588.428
436.65115,589.22
437.18607,594.512
437.72095,590.348
438.25583,592.316
438.79071,590.953
439.32559,591.468
439.86047,592.127
440.39536,588.477
440.93024,590.465
441.46512,590.361
442,592.875
442.53488,591.268
443.06976,590.981
443.60464,590.277
444.13953,587.865
444.67444,587.462
445.20932,589.635
445.7442,593.365
446.27908,589.239
446.81396,589.893
447.34885,590.562
447.88373,594.811
448.41861,590.578
448.95349,589.727
449.48837,593.205
450.02325,591.999
450.55814,591.405
451.09302,592.763
451.6279,592.633
452.16278,588.596
452.69769,588.871
453.23257,590.326
453.76746,589.808
454.30234,591.209
454.83722,591.533
455.3721,589.026
455.90698,591.283
456.44186,590.993
456.97675,589.367
457.51163,591.84
458.04651,590.041
458.58139,589.669
459.11627,590.443
459.65115,590.027
460.18607,591.234
460.72095,591.296
461.25583,592.703
461.79071,591.957
462.32559,588.606
462.86047,591.433
463.39536,591.063
463.93024,589.433
464.46512,593.066
465,591.728
465.53488,590.492
466.06976,590.209
466.60464,595.593
467.13953,590.774
467.67444,591.209
468.20932,589.541
468.7442,591.922
469.27908,590.468
469.81396,591.681
470.34885,592.676
470.88373,589.69
471.41861,591.268
471.95349,592.303
472.48837,589.985
473.02325,593.083
473.55814,590.193
474.09302,591.085
474.6279,591.893
475.16281,589.128
475.69769,592.046
476.23257,592.188
476.76746,591.881
477.30234,589.639
477.83722,587.707
478.3721,587.742
478.90698,592.599
479.44186,585.546
479.97675,592.117
480.51163,592.548
481.04651,593.379
481.58139,593.176
482.11627,590.636
482.65118,593.053
483.18607,592.062
483.72095,590.024
484.25583,589.274
484.79071,591.285
485.32559,590.906
485.86047,590.638
486.39536,588.205
486.93024,591.321
487.46512,594.627
488,589.918
488.53488,595.072
489.06976,592.345
489.60464,587.642
490.13953,586.361
490.67444,590.688
491.20932,588.081
491.7442,592.734
492.27908,592.279
492.81396,589.706
493.34885,594.767
493.88373,590.121
494.41861,589.918
494.95349,593.203
495.48837,591.646
496.02325,587.627
496.55814,591.081
497.09302,590.779
497.6279,591.689
498.16281,591.257
498.69769,587.347
499.23257,589.911
499.76746,590.01
500.30234,587.728
500.83722,592.835
501.3721,593.511
501.90698,590.965
502.44186,594.699
502.97675,592.42
503.51163,591.204
504.04651,588.734
504.58139,589.475
505.11627,588.916
505.65118,595.979
506.18607,590.847
506.72095,587.232
507.25583,587.861
507.79071,590.757
508.32559,590.614
508.86047,589.967
509.39536,589.542
509.93024,588.981
510.46512,592.055
511,589.394
511.53488,593.679
512.06976,589.76
512.60468,588.539
513.13953,595.15
513.67444,591.534
514.20929,594.164
514.7442,592.016
515.27905,592.352
515.81396,589.204
516.34882,590.206
516.88373,592.496
517.41864,588.095
517.95349,592.177
518.4884,593.938
519.02325,589.912
519.55817,590.855
520.09302,588.426
520.62793,587.794
521.16278,591.253
521.69769,594.271
522.23254,588.576
522.76746,589.637
523.30231,594.156
523.83722,595.473
524.37207,590.082
524.90698,591.749
525.44189,589.885
525.97675,587.267
526.51166,591.52
527.04651,590.414
527.58142,589.016
528.11627,588.962
528.65118,591.189
529.18604,593.796
529.72095,591.916
530.2558,590.924
530.79071,591.181
531.32556,591.931
531.86047,592.652
532.39539,593.775
532.93024,588.816
533.46515,588.748
534,591.377
534.53491,592.165
535.06976,594.091
535.60468,594.154
536.13953,591.31
536.67444,592.251
537.20929,591.115
537.7442,589.865
538.27905,592.361
538.81396,596.247
539.34882,589.308
539.88373,588.909
540.41864,589.573
540.95349,591.68
541.4884,592.187
542.02325,595.91
542.55817,593.828
543.09302,590.262
543.62793,588.282
544.16278,593.568
544.69769,596.591
545.23254,591.797
545.76746,586.846
546.30231,589.308
546.83722,593.585
547.37213,592.269
547.90698,595.021
548.44189,589.762
548.97675,588.545
549.51166,593.357
550.04651,589.81
550.58142,591.021
551.11627,591.572
551.65118,594.858
552.18604,592.031
552.72095,589.141
553.2558,587.166
553.79071,591.627
554.32556,592.123
554.86047,589.793
555.39539,590.385
555.93024,595.816
556.46515,595.664
557,590.191
557.53491,590.306
558.06976,589.582
558.60468,593.25
559.13953,595.532
559.67444,589.706
560.20929,592.92
560.7442,598.337
561.27905,595.185
561.81396,592.637
562.34882,591.526
562.88373,595.736
563.41864,592.412
563.95349,597.09
564.4884,595.227
565.02325,592.641
565.55817,590.556
566.09302,594.325
566.62793,593.178
567.16278,592.072
567.69769,593.683
568.23254,594.079
568.76746,596.027
569.30231,591.962
569.83722,593.117
570.37213,593.279
570.90698,595.829
571.44189,594.567
571.97675,589.223
572.51166,593.394
573.04651,596.366
573.58142,593.594
574.11627,593.058
574.65118,596.526
575.18604,595.603
575.72095,592.523
576.2558,588.927
576.79071,591.412
577.32556,595.172
577.86047,592.201
578.39539,595.628
578.93024,595.246
579.46515,597.699
580,596.858
580.53491,594.079
581.06976,596.198
581.60468,597.124
582.13953,593.069
582.67444,593.128
583.20929,600.176
583.7442,598.394
584.27905,596.745
584.81396,595.882
585.34888,599.449
585.88373,596.607
586.41864,600.651
586.95349,600.787
587.4884,602.011
588.02325,597.594
588.55817,594.189
589.09302,597.364
589.62793,599.435
590.16278,602.634
590.69769,600.996
591.23254,601.96
591.76746,596.538
592.30231,602.701
592.83722,598.443
593.37213,600.49
593.90698,599.363
594.44189,604.115
594.97675,606.41
595.51166,602.576
596.04651,600.374
596.58142,597.896
597.11627,611.048
597.65118,605.54
598.18604,604.89
598.72095,610.179
599.2558,606.697
599.79071,607.509
600.32556,606.455
600.86047,605.878
601.39539,609.638
601.93024,610.215
602.46515,602.487
603,607.137
603.53491,616.274
604.06976,604.371
604.60468,605.224
605.13953,611.09
605.67444,606.383
606.20929,606.167
606.7442,614.791
607.27905,607.003
607.81396,611.718
608.34888,610.775
608.88373,608.345
609.41864,610.028
609.95349,610.967
610.4884,610.054
611.02325,607.626
611.55817,611.635
612.09302,608.091
612.62793,610.311
613.16278,611.045
613.69769,604.514
614.23254,612.21
614.76746,610.108
615.30231,611.72
615.83722,613.371
616.37213,610.288
616.90698,620.803
617.44189,619.405
617.97675,616.017
618.51166,615.492
619.04651,612.827
619.58142,615.554
620.11627,615.341
620.65118,615.236
621.18604,613.969
621.72095,613.84
622.2558,605.868
622.79071,613.457
623.32556,616.977
623.86047,611.321
624.39539,617.56
624.93024,616.537
625.46515,617.573
626,617.213
626.53491,609.144
627.06976,608.202
627.60468,613.043
628.13953,611.789
628.67444,621.065
629.20929,611.749
629.7442,606.659
630.27905,612.743
630.81396,615.05
631.34888,615.053
631.88373,616.076
632.41864,612.764
632.95349,610.401
633.4884,611.805
634.02325,608.67
634.55817,614.985
635.09302,617.392
635.62793,612.704
636.16278,606.66
636.69769,614.66
637.23254,620.112
637.76746,617.698
638.30231,610.915
638.83722,607.765
639.37213,609.12
639.90698,615.281
640.44189,614.647
640.97675,614.529
641.51166,615.7
642.04651,608.58
642.58142,615.16
643.11627,611.363
643.65118,604.848
644.18604,613.193
644.72095,618.508
645.2558,613.936
645.79071,615.496
646.32562,609.682
646.86047,618.779
647.39539,610.311
647.93024,609.901
648.46515,615.358
649,610.128
649.53491,615.182
650.06976,614.519
650.60468,614.718
651.13953,616.928
651.67444,614.183
652.20929,614.64
652.7442,615.072
653.27905,613.638
653.81396,612.295
654.34888,618.537
654.88373,612.661
655.41864,613.769
655.95349,616.595
656.4884,613.113
657.02325,611.884
657.55817,616.417
658.09302,614.588
658.62793,613.605
659.16278,610.085
659.69769,613.746
660.23254,615.64
660.76746,615.498
661.30231,613.18
661.83722,611.811
662.37213,609.992
662.90698,612.932
663.44189,612.849
663.97675,612.533
664.51166,610.877
665.04651,609.123
665.58142,614.313
666.11627,614.089
666.65118,610.384
667.18604,611.718
667.72095,613.531
668.2558,606.787
668.79071,608.386
669.32562,611.319
669.86047,611.458
670.39539,609.716
670.93024,613.613
671.46515,605.999
672,614.247
672.53491,614.22
673.06976,608.326
673.60468,609.572
674.13953,611.054
674.67444,606.704
675.20929,612.084
675.7442,610.63
676.27905,611.058
676.81396,609.066
677.34888,611.312
677.88373,614.029
678.41864,615.217
678.95349,609.919
679.4884,612.46
680.02325,614.297
680.55817,606.715
681.09302,612.649
681.62793,611.559
682.16278,607.773
682.69769,605.288
683.23254,606.939
683.76746,606.742
684.30237,606.934
684.83722,609.032
685.37213,605.006
685.90698,608.379
686.44189,613.114
686.97675,612.89
687.51166,606.9
688.04651,606.651
688.58142,609.872
689.11627,608.26
689.65118,612.688
690.18604,608.775
690.72095,610.348
691.2558,611.924
691.79071,610.32
692.32562,607.908
692.86047,615.936
693.39539,610.875
693.93024,612.498
694.46515,618.874
695,612.837
695.53491,610.92
696.06976,612.833
696.60468,611.03
697.13953,610.846
697.67444,605.332
698.20929,605.979
698.7442,610.006
699.27905,605.6
699.81396,608.137
700.34888,605.913
700.88373,605.879
701.41864,604.823
701.95349,609.819
702.4884,611.872
703.02325,605.893
703.55817,605.024
704.09302,612.879
704.62793,606.25
705.16278,603.784
705.69769,609.627
706.23254,604.515
706.76746,608.039
707.30237,607.064
707.83722,603.309
708.37213,607.839
708.90698,606.111
709.44189,611.702
709.97675,608.418
710.51166,604.281
711.04651,614.539
711.58142,609.311
712.11627,609.147
712.65118,600.282
713.18604,602.239
713.72095,611.241
714.2558,608.227
714.79071,604.519
715.32562,614.155
715.86047,614.21
716.39539,609.754
716.93024,612.282
717.46515,616.534
718,617.277
718.53491,611.28
719.06976,607.244
719.60468,614.398
720.13953,609.553
720.67444,611.53
721.20929,610.014
721.7442,607.06
722.27911,607.229
722.81396,610.137
723.34888,607.667
723.88373,610.494
724.41864,609.163
724.95349,607.187
725.4884,607.273
726.02325,604.332
726.55817,605.796
727.09302,603.876
727.62793,601.65
728.16278,608.239
728.69769,604.676
729.23254,599.009
729.76746,606.075
730.30237,611.021
730.83722,607.326
731.37213,607.226
731.90698,603.581
732.44189,605.712
732.97675,607.97
733.51166,612.451
734.04651,609.911
734.58142,610.566
735.11627,609.913
735.65118,610.396
736.18604,613.391
736.72095,607.195
737.2558,606.556
737.79071,610.256
738.32562,610.178
738.86047,610.548
739.39539,604.916
739.93024,602.99
740.46515,606.742
741,607.24
741.53491,602.242
742.06976,603.829
742.60468,603.949
743.13953,605.581
743.67444,609.619
744.20929,606.859
744.7442,607.177
745.27911,606.48
745.81396,605.279
746.34888,603.641
746.88373,607.065
747.41864,609.628
747.95349,602.543
748.4884,599.438
749.02325,606.011
749.55817,603.484
750.09302,600.86
750.62793,605.628
751.16278,606.818
751.69769,606.289
752.23254,605.995
752.76746,604.391
753.30237,601.97
753.83722,605.775
754.37213,606.793
754.90698,604.236
755.44189,604.78
755.97675,601.558
756.51166,603.184
757.04651,605.9
757.58142,598.457
758.11627,601.771
758.65118,607.746
759.18604,606.973
759.72095,602.428
760.25586,600.288
760.79071,600.078
761.32562,604.908
761.86047,607.982
762.39539,602.967
762.93024,608.453
763.46515,605.748
764,602.88
764.53491,601.294
765.06976,600.882
765.60468,604.872
766.13953,605.836
766.67444,601.877
767.20929,603.565
767.7442,615.78
768.27911,626.484
768.81396,618.868
769.34888,611.337
769.88373,606.7
770.41864,605.532
770.95349,601.464
771.4884,608.028
772.02325,605.964
772.55817,597.893
773.09302,597.427
773.62793,604.056
774.16278,601.603
774.69769,599.034
775.23254,595.069
775.76746,602.301
776.30237,594.655
776.83722,596.946
777.37213,602.771
777.90698,597.035
778.44189,598.157
778.97675,603.099
779.51166,604.088
780.04651,600.359
780.58142,604.192
781.11627,596.999
781.65118,598.371
782.18604,595.718
782.72095,599.072
783.25586,600.572
783.79071,597.174
784.32562,596.29
784.86047,597.136
785.39539,597.005
785.93024,595.794
786.46515,602.178
787,600.03
787.53491,598.759
788.06976,595.656
788.60468,594.821
789.13953,598.912
789.67444,600.003
790.20929,597.393
790.7442,594.831
791.27911,597.027
791.81396,599.47
792.34888,603.87
792.88373,599.018
793.41864,600.527
793.95349,598.683
794.4884,601.947
795.02325,597.895
795.55817,595.079
796.09302,599.561
796.62793,601.479
797.16278,599.405
797.69769,596.937
798.23254,600.784
798.76746,601.054
799.30237,595.555
799.83722,597.305
800.37213,599.092
800.90698,600.987
801.44189,598.919
801.97675,599.353
802.51166,606.055
803.04651,605.158
803.58142,599.658
804.11627,600.759
804.65118,595.329
805.18604,598.83
805.72095,596.546
806.25586,603.203
806.79071,603.256
807.32562,598.432
807.86047,600.626
808.39539,598.742
808.93024,601.788
809.46515,597.87
810,595.249
810.53491,598.659
811.06976,594.864
811.60468,600.032
812.13953,598.285
812.67444,596.924
813.20929,599.54
813.7442,599.837
814.27911,598.306
814.81396,601.926
815.34888,599.385
815.88373,605.296
816.41864,598.052
816.95349,595.457
817.4884,596.914
818.02325,598.015
818.55817,596.836
819.09302,595.979
819.62793,595.725
820.16278,604.344
820.69769,601.257
821.2326,601.769
821.76746,599.617
822.30237,600.852
822.83722,601.398
823.37213,601.615
823.90698,607.652
824.44189,602.068
824.97675,604.915
825.51166,606.964
826.04651,627.584
826.58142,666.322
827.11627,717.209
827.65118,755.296
828.18604,731.476
828.72095,700.968
829.25586,683.564
829.79071,661.639
830.32562,648.852
830.86047,649.226
831.39539,656.352
831.93024,654.842
832.46515,647.589
833,650.411
833.53491,631.242
834.06976,625.181
834.60468,619.437
835.13953,610.365
835.67444,606.144
836.20929,599.383
836.7442,598.196
837.27911,607.069
837.81396,605.384
838.34888,615.602
838.88373,619.525
839.41864,615.968
839.95349,620.917
840.4884,613.638
841.02325,608.19
841.55817,607.317
842.09302,601.213
842.62793,597.24
843.16278,597.447
843.69769,600.534
844.2326,602.986
844.76746,606.654
845.30237,604.885
845.83722,609.828
846.37213,602.346
846.90698,601.929
847.44189,593.903
847.97675,595.613
848.51166,594.63
849.04651,599.741
849.58142,594.044
850.11627,595.944
850.65118,594.428
851.18604,594.659
851.72095,593.804
852.25586,592.65
852.79071,590.011
853.32562,590.644
853.86047,595.373
854.39539,594.381
854.93024,593.109
855.46515,590.202
856,592.472
856.53491,593.83
857.06976,591.634
857.60468,589.953
858.13953,591.513
858.67444,593.891
859.20935,592.97
859.7442,589.631
860.27911,591.571
860.81396,595.265
861.34888,595.606
861.88373,591.8
862.41864,592.882
862.95349,593.354
863.4884,591.538
864.02325,594.893
864.55817,594.961
865.09302,593.829
865.62793,592.612
866.16278,593.155
866.69769,590.831
867.2326,591.075
867.76746,594.585
868.30237,593.222
868.83722,593.735
869.37213,592.542
869.90698,593.609
870.44189,595.471
870.97675,596.504
871.51166,595.447
872.04651,593.659
872.58142,590.806
873.11627,592.519
873.65118,593.915
874.18604,593.76
874.72095,595.344
875.25586,596.297
875.79071,589.812
876.32562,592.698
876.86047,595.842
877.39539,593.58
877.93024,594.277
878.46515,596.456
879,597.177
879.53491,595.034
880.06976,592.752
880.60468,596.527
881.13953,596.395
881.67444,595.468
882.20935,595.359
882.7442,597.103
883.27911,595.511
883.81396,596.514
884.34888,598.673
884.88373,604.238
885.41864,621.009
885.95349,649.343
886.4884,658.748
887.02325,654.362
887.55817,645.666
888.09302,632.097
888.62793,616.816
889.16278,611.318
889.69769,608.153
890.2326,609.392
890.76746,603.807
891.30237,602.945
891.83722,597.854
892.37213,598.28
892.90698,595.113
893.44189,596.012
893.97675,597.466
894.51166,594.297
895.04651,595.805
895.58142,596.746
896.11627,594.811
896.65118,594.276
897.18604,598.763
897.72095,598.535
898.25586,595.239
898.79071,598.326
899.32562,600.856
899.86047,600.818
900.39539,602.577
900.93024,602.65
901.46515,597.239
902,599.833
902.53491,599.181
903.06976,598.412
903.60468,597.896
904.13953,591.668
904.67444,596.44
905.20935,593.493
905.7442,593.781
906.27911,594.982
906.81396,594.108
907.34888,592.493
907.88373,594.223
908.41864,604.938
908.95349,609.86
909.4884,608.718
910.02325,603.224
910.55817,597.593
911.09302,594.353
911.62793,596.226
912.16278,596.391
912.69769,592.599
913.2326,593.651
913.76746,596.451
914.30237,592.201
914.83722,590.515
915.37213,594.413
915.90698,595.974
916.44189,596.051
916.97675,591.664
917.51166,597.267
918.04651,594.408
918.58142,593.37
919.11627,593.84
919.65118,598.981
920.1861,602.883
920.72095,607.451
921.25586,604.256
921.79071,601.458
922.32562,605.847
922.86047,603.924
923.39539,597.297
923.93024,596.653
924.46515,593.187
925,591.272
925.53491,596.247
926.06976,594.127
926.60468,595.018
927.13953,591.602
927.67444,595.011
928.20935,593.973
928.7442,591.384
929.27911,592.294
929.81396,596.589
930.34888,591.94
930.88373,591.601
931.41864,592.716
931.95349,590.222
932.4884,593.1
933.02325,588.939
933.55817,588.082
934.09302,591.125
934.62793,590.721
935.16278,593.468
935.69769,595.911
936.2326,593.139
936.76746,588.319
937.30237,590.426
937.83722,590.234
938.37213,592.082
938.90698,592.671
939.44189,587.221
939.97675,591.534
940.51166,589.152
941.04651,590.4
941.58142,596.468
942.11627,598.973
942.65118,593.924
943.1861,593.294
943.72095,591.551
944.25586,593.226
944.79071,594.092
945.32562,594.208
945.86047,591.75
946.39539,593.48
946.93024,597.37
947.46515,593.194
948,595.395
948.53491,591.975
949.06976,592.391
949.60468,593.48
950.13953,596.967
950.67444,595.942
951.20935,593.498
951.7442,595.706
952.27911,601.089
952.81396,592.131
953.34888,594.984
953.88373,596.623
954.41864,597.643
954.95349,600.142
955.4884,593.814
956.02325,596.575
956.55817,599.124
957.09302,597.654
957.62793,598.238
958.16284,595.31
958.69769,596.994
959.2326,593.38
959.76746,592.854
960.30237,593.995
960.83722,592.869
961.37213,592.008
961.90698,591.859
962.44189,588.966
962.97675,590.137
963.51166,593.014
964.04651,593.563
964.58142,595.161
965.11627,590.456
965.65118,589.674
966.1861,592.321
966.72095,598.356
967.25586,589.26
967.79071,590.501
968.32562,590.741
968.86047,592.706
969.39539,591.754
969.93024,590.025
970.46515,588.091
971,593.861
971.53491,593.68
972.06976,591.232
972.60468,593.07
973.13953,591.622
973.67444,591.052
974.20935,592.852
974.7442,591.213
975.27911,589.64
975.81396,596.69
976.34888,597.619
976.88373,593.728
977.41864,594.878
977.95349,593.36
978.4884,589.226
979.02325,591.719
979.55817,596.615
980.09302,595.488
980.62793,592.177
981.16284,589.999
981.69769,593.451
982.2326,599.719
982.76746,593.668
983.30237,601.474
983.83722,601.237
984.37213,602.748
984.90698,606.205
985.44189,603.028
985.97675,600.27
986.51166,597.022
987.04651,598.078
987.58142,595.09
988.11627,593.889
988.65118,593.12
989.1861,594.653
989.72095,593.816
990.25586,596.757
990.79071,590.545
991.32562,588.498
991.86047,592.935
992.39539,591.892
992.93024,590.246
993.46515,591.516
994,589.686
994.53491,591.739
995.06976,592.801
995.60468,595.333
996.13959,597.969
996.67444,600.474
997.20935,602.472
997.7442,600.517
998.27911,592.576
998.81396,593.517
999.34888,596.943
999.88373,593.911
1000.4186,594.487
1000.9535,594.154
1001.4884,594.211
1002.0233,587.196
1002.5582,587.944
1003.093,588.569
1003.6279,590.779
1004.1628,588.611
1004.6977,592.427
1005.2326,589.297
1005.7675,594.731
1006.3024,592.28
1006.8372,588.749
1007.3721,591.378
1007.907,590.351
1008.4419,590.408
1008.9767,590.511
1009.5117,592.191
1010.0465,593.083
1010.5814,595.081
1011.1163,592.584
1011.6512,593.695
1012.1861,591.663
1012.7209,587.153
1013.2559,590.751
1013.7907,591.789
1014.3256,589.202
1014.8605,589.976
1015.3954,588.85
1015.9302,589.15
1016.4651,590.443
1017,590.691
1017.5349,592.114
1018.0698,589.662
1018.6047,588.609
1019.1396,595.359
1019.6744,588.36
1020.2094,593.076
1020.7442,592.024
1021.2791,588.56
1021.814,592.773
1022.3489,590.691
1022.8837,590.623
1023.4186,592.99
1023.9535,590.113
1024.4884,590.38
1025.0233,591.917
1025.5581,590.584
1026.093,593.985
1026.6279,587.585
1027.1628,593.577
1027.6978,592.003
1028.2325,589.892
1028.7675,589.29
1029.3024,587.194
1029.8373,587.503
1030.3721,589.25
1030.907,588.754
1031.4419,587.478
1031.9768,593.094
1032.5116,592.209
1033.0465,588.193
1033.5814,592.825
1034.1163,591.589
1034.6512,592.929
1035.186,593.011
1035.7209,593.024
1036.2559,591.533
1036.7908,588.89
1037.3256,592.292
1037.8605,592.678
1038.3954,585.529
1038.9303,590.366
1039.4651,592.389
1040,588.016
1040.5349,591.215
1041.0698,593.662
1041.6046,590.854
1042.1395,591.982
1042.6744,591.217
1043.2094,587.89
1043.7443,591.987
1044.2791,594.937
1044.814,587.366
1045.3489,591.007
1045.8838,589.113
1046.4186,590.05
1046.9535,588.937
1047.4884,590.703
1048.0233,592.915
1048.5581,595.46
1049.093,593.352
1049.6279,588.45
1050.1628,591.344
1050.6978,592.527
1051.2325,591.201
1051.7675,586.518
1052.3024,587.922
1052.8373,587.202
1053.3721,588.973
1053.907,591.085
1054.4419,590.124
1054.9768,589.927
1055.5116,590.179
1056.0465,589.542
1056.5814,588.84
1057.1163,593.511
1057.6512,590.108
1058.186,591.904
1058.7209,586.333
1059.2559,587.988
1059.7908,586.703
1060.3256,590.117
1060.8605,591.967
1061.3954,590.725
1061.9303,592.407
1062.4651,589.995
1063,590.47
1063.5349,590.89
1064.0698,591.578
1064.6047,592.562
1065.1395,592.446
1065.6744,592.191
1066.2094,591.701
1066.7443,590.685
1067.2791,590.172
1067.814,588.509
1068.3489,587.996
1068.8838,592.824
1069.4186,591.444
1069.9535,591.076
1070.4884,591.848
1071.0233,588.491
1071.5581,589.738
1072.093,588.989
1072.6279,587.357
1073.1628,590.141
1073.6978,588.187
1074.2325,589.603
1074.7675,592.079
1075.3024,588.891
1075.8373,589.656
1076.3721,591.116
1076.907,592.315
1077.4419,588.279
1077.9768,590.13
1078.5116,590.794
1079.0465,589.891
1079.5814,588.282
1080.1163,589.323
1080.6512,593.247
1081.186,587.662
1081.7209,589.362
1082.2559,592.732
1082.7908,591.936
1083.3256,588.546
1083.8605,591.092
1084.3954,591.195
1084.9303,587.28
1085.4651,588.309
1086,591.634
1086.5349,592.341
1087.0698,591.415
1087.6047,588.799
1088.1395,589.355
1088.6744,588.422
1089.2094,587.411
1089.7443,590.163
1090.2791,591.29
1090.814,589.253
1091.3489,589.915
1091.8838,591.688
1092.4186,590.733
1092.9535,591.474
1093.4884,588.239
1094.0233,588.85
1094.5581,589.997
1095.093,590.19
1095.6279,590.87
1096.1628,590.246
1096.6978,591.792
1097.2325,592.369
1097.7675,589.699
1098.3024,590.705
1098.8373,589.172
1099.3721,591.32
1099.907,589.551
1100.4419,590.088
1100.9768,589.417
1101.5116,587.793
1102.0465,592.146
1102.5814,594.678
1103.1163,588.123
1103.6512,587.675
1104.186,592.325
1104.7209,590.54
1105.2559,590.72
1105.7908,590.047
1106.3256,591.332
1106.8605,591.662
1107.3954,595.625
1107.9303,585.757
1108.4651,591.238
1109,591.557
1109.5349,591.626
1110.0698,587.448
1110.6047,584.297
1111.1395,590.238
1111.6744,592.753
1112.2094,588.775
1112.7443,586.987
1113.2791,591.112
1113.814,587.477
1114.3489,588.91
1114.8838,592.769
1115.4186,586.919
1115.9535,586.985
1116.4884,587.565
1117.0233,589.647
1117.5581,590.089
1118.093,590.02
1118.6279,590.886
1119.1628,590.038
1119.6978,591.67
1120.2325,585.404
1120.7675,591.552
1121.3024,592.761
1121.8373,588.724
1122.3721,587.706
1122.907,592.604
1123.4419,591.27
1123.9768,592.245
1124.5116,592.154
1125.0465,588.976
1125.5814,588.553
1126.1163,587.015
1126.6512,589.361
1127.186,588.789
1127.7209,594.496
1128.2559,592.388
1128.7908,591.385
1129.3256,593.857
1129.8605,588.799
1130.3954,591.824
1130.9303,588.817
1131.4651,589.523
1132,584.985
1132.5349,588.509
1133.0698,587.179
1133.6047,588.258
1134.1395,591.986
1134.6744,586.614
1135.2094,590.692
1135.7443,587.674
1136.2791,585.847
1136.814,591.189
1137.3489,590.729
1137.8838,591.494
1138.4186,589.318
1138.9535,588.976
1139.4884,592.681
1140.0233,586.46
1140.5581,591.122
1141.093,590.576
1141.6279,590.681
1142.1628,591.371
1142.6978,588.722
1143.2325,588.068
1143.7675,587.85
1144.3024,588.925
1144.8373,587.115
1145.3721,592.097
1145.907,591.813
1146.4419,591.015
1146.9768,592.628
1147.5116,595.385
1148.0465,587.704
1148.5814,589.669
1149.1163,594.762
1149.6512,593.112
1150.186,590.305
1150.7209,589.072
1151.2559,595.791
1151.7908,590.077
1152.3256,590.586
1152.8605,592.53
1153.3954,590.696
1153.9303,591.67
1154.4651,589.943
1155,587.717
1155.5349,589.375
1156.0698,592.786
1156.6047,588.681
1157.1395,585.563
1157.6744,590.434
1158.2094,589.32
1158.7443,585.014
1159.2791,589.498
1159.814,592.827
1160.3489,588.399
1160.8838,590.789
1161.4186,588.73
1161.9535,592.044
1162.4884,590.121
1163.0233,589.693
1163.5582,588.924
1164.093,589.271
1164.6279,587.574
1165.1628,593.725
1165.6978,594.773
1166.2325,591.161
1166.7675,590.113
1167.3024,590.734
1167.8373,592.042
1168.3721,588.101
1168.907,587.491
1169.4419,592.805
1169.9768,590.77
1170.5116,591.327
1171.0465,593.501
1171.5814,593.357
1172.1163,587.857
1172.6512,587.202
1173.186,591.244
1173.7209,593.092
1174.2559,593.39
1174.7908,590.143
1175.3256,592.042
1175.8605,593.234
1176.3954,592.927
1176.9303,593.001
1177.4651,591.274
1178,593.797
1178.5349,590.06
1179.0698,585.121
1179.6047,591.79
1180.1395,592.776
1180.6744,586.788
1181.2094,592.164
1181.7443,593.111
1182.2791,586.562
1182.814,589.579
1183.3489,591.603
1183.8838,595.731
1184.4186,591.193
1184.9535,590.162
1185.4884,592.62
1186.0233,590.97
1186.5582,592.035
1187.093,590.195
1187.6279,590.776
1188.1628,591.278
1188.6978,589.363
1189.2325,589.038
1189.7675,594.37
1190.3024,587.515
1190.8373,594.453
1191.3721,588.691
1191.907,590.633
1192.4419,590.539
1192.9768,590.299
1193.5116,591.045
1194.0465,587.562
1194.5814,590.451
1195.1163,590.052
1195.6512,590.468
1196.186,595.617
1196.7209,592.207
1197.2559,591.495
1197.7908,592.061
1198.3256,593.001
1198.8605,590.954
1199.3954,588.471
1199.9303,587.675
1200.4651,593
1201,592.984
1201.5349,587.787
1202.0698,587.184
1202.6047,591.59
1203.1395,590.456
1203.6744,588.335
1204.2094,588.408
1204.7443,589.709
1205.2791,590.657
1205.814,590.386
1206.3489,592.45
1206.8838,587.396
1207.4186,589.458
1207.9535,591.298
1208.4884,590.607
1209.0233,588.169
1209.5582,590.19
1210.093,589.925
1210.6279,588.023
1211.1628,588.666
1211.6978,587.469
1212.2325,587.465
1212.7675,592.095
1213.3024,586.698
1213.8373,590.77
1214.3721,591.631
1214.907,592.998
1215.4419,588.598
1215.9768,587.266
1216.5116,587.362
1217.0465,586.876
1217.5814,591.863
1218.1163,586.986
1218.6512,590.054
1219.186,589.988
1219.7209,591.706
1220.2559,593.859
1220.7908,592.915
1221.3256,590.565
1221.8605,591.613
1222.3954,597.406
1222.9303,589.619
1223.4651,590.881
1224,591.806
1224.5349,589.608
1225.0698,588.03
1225.6047,587.726
1226.1395,594.711
1226.6744,590.661
1227.2094,589.818
1227.7443,590.754
1228.2791,590.57
1228.814,591.309
1229.3489,587.244
1229.8838,592.189
1230.4186,590.201
1230.9535,590.094
1231.4884,587.656
1232.0233,586.442
1232.5582,592.084
1233.093,590.687
1233.6279,589.201
1234.1628,592.376
1234.6978,590.77
1235.2325,591.006
1235.7675,591.813
1236.3024,591.165
1236.8373,590.07
1237.3721,593.894
1237.907,589.957
1238.4419,590.776
1238.9768,587.945
1239.5117,589.66
1240.0465,592.136
1240.5814,592.102
1241.1163,593.527
1241.6512,590.82
1242.186,588.647
1242.7209,592.572
1243.2559,589.153
1243.7908,589.673
1244.3256,589.976
1244.8605,591.092
1245.3954,588.951
1245.9303,589.281
1246.4651,592.12
1247,587.747
1247.5349,589.79
1248.0698,588.179
1248.6047,592.695
1249.1395,588.452
1249.6744,587.459
1250.2094,587.146
1250.7443,591.675
1251.2791,592.066
1251.814,589.404
1252.3489,591.751
1252.8838,594.871
1253.4186,591.602
1253.9535,589.625
1254.4884,593.387
1255.0233,591.229
1255.5582,588.664
1256.093,593.463
1256.6279,593.14
1257.1628,587.105
1257.6978,591.96
1258.2325,588.609
1258.7675,592.077
1259.3024,591.341
1259.8373,591.401
1260.3721,588.85
1260.907,593.56
1261.4419,588.673
1261.9768,590.626
1262.5117,589.182
1263.0465,591.071
1263.5814,591.66
1264.1163,590.075
1264.6512,592.089
1265.186,590.863
1265.7209,594.033
1266.2559,588.435
1266.7908,587.271
1267.3256,592.431
1267.8605,588.974
1268.3954,589.377
1268.9303,590.543
1269.4651,587.853
1270,589.205
1270.5349,590.653
1271.0698,588.574
1271.6047,590.08
1272.1395,589.133
1272.6744,591.965
1273.2094,589.868
1273.7443,591.827
1274.2791,589.383
1274.814,587.577
1275.3489,590.357
1275.8838,590.63
1276.4186,590.889
1276.9535,591.894
1277.4884,587.28
1278.0233,588.072
1278.5582,592.293
1279.093,589.852
1279.6279,588.59
1280.1628,589.392
1280.6978,589.286
1281.2325,589.123
1281.7675,590.727
1282.3024,591.063
1282.8373,590.975
1283.3721,590.898
1283.907,589.923
1284.4419,588.359
1284.9768,589.261
1285.5117,587.927
1286.0465,592.063
1286.5814,592.176
1287.1163,590.665
1287.6512,588.772
1288.186,590.453
1288.7209,589.576
1289.2559,590.504
1289.7908,589.105
1290.3256,587.926
1290.8605,591.37
1291.3954,591.075
1291.9303,590.846
1292.4651,589.288
1293,588.608
1293.5349,591.35
1294.0698,588.564
1294.6047,588.921
1295.1395,588.036
1295.6744,587.819
1296.2094,586.535
1296.7443,590.802
1297.2791,589.224
1297.814,588.053
1298.3489,588.945
1298.8838,591.039
1299.4186,591.197
1299.9535,592.448
1300.4884,587.937
1301.0233,589.81
1301.5582,591.137
1302.093,591.341
1302.6279,590.996
1303.1628,591.029
1303.6978,589.059
1304.2325,587.122
1304.7675,592.024
1305.3024,593.673
1305.8373,589.617
1306.3721,594.022
1306.907,589.209
1307.4419,589.355
1307.9768,591.972
1308.5117,592.248
1309.0465,587.003
1309.5814,588.724
1310.1163,589.061
1310.6512,592.012
1311.186,590.147
1311.7209,589.129
1312.2559,589.711
1312.7908,592.527
1313.3256,590.47
1313.8605,588.257
1314.3954,587.031
1314.9303,590.035
1315.4651,593.819
1316,589.495
1316.5349,589.653
1317.0698,593.319
1317.6047,591.013
1318.1395,590.92
1318.6744,590.276
1319.2094,589.387
1319.7443,592.523
1320.2791,587.759
1320.814,590.026
1321.3489,587.88
1321.8838,590.535
1322.4186,593.558
1322.9535,588.891
1323.4884,594.902
1324.0233,590.996
1324.5582,593.914
1325.093,587.425
1325.6279,585.676
1326.1628,585.855
1326.6978,590.87
1327.2325,588.266
1327.7675,589.668
1328.3024,590.741
1328.8373,587.161
1329.3721,590.364
1329.907,592.088
1330.4419,589.746
1330.9768,589.606
1331.5117,589.609
1332.0465,585.802
1332.5814,592.681
1333.1163,592.012
1333.6512,590.003
1334.186,589.687
1334.7209,587.234
1335.2559,590.008
1335.7908,589.598
1336.3256,592.175
1336.8605,590.159
1337.3954,588.15
1337.9303,589.186
1338.4652,589.244
1339,590.986
1339.5349,591.439
1340.0698,591.531
1340.6047,592.57
1341.1395,587.2
1341.6744,589.982
1342.2094,586.012
1342.7443,590.2
1343.2791,590.804
1343.814,588.952
1344.3489,590.328
1344.8838,591.05
1345.4186,590.991
1345.9535,588.323
1346.4884,588.995
1347.0233,592.26
1347.5582,589.574
1348.093,588.992
1348.6279,588.999
1349.1628,594.726
1349.6978,588.508
1350.2325,586.603
1350.7675,588.954
1351.3024,588.031
1351.8373,588.151
1352.3721,591.889
1352.907,587.78
1353.4419,589.049
1353.9768,589.79
1354.5117,591.676
1355.0465,589.966
1355.5814,591.599
1356.1163,588.755
1356.6512,587.813
1357.186,593.465
1357.7209,590.903
1358.2559,592.924
1358.7908,592.921
1359.3256,588.259
1359.8605,588.917
1360.3954,589.91
1360.9303,595.033
1361.4652,590.458
1362,589.867
1362.5349,594.459
1363.0698,590.41
1363.6047,589.324
1364.1395,583.962
1364.6744,593.568
1365.2094,589.853
1365.7443,586.767
1366.2791,590.36
1366.814,588.28
1367.3489,589.665
1367.8838,588.343
1368.4186,588.849
1368.9535,589.689
1369.4884,594.048
1370.0233,586.857
1370.5582,589.625
1371.093,593.611
1371.6279,588.968
1372.1628,590.53
1372.6978,588.268
1373.2325,589.848
1373.7675,589.4
1374.3024,589.366
1374.8373,590.509
1375.3721,592.537
1375.907,590.368
1376.4419,590.861
1376.9768,589.427
1377.5117,588.872
1378.0465,588.4
1378.5814,583.891
1379.1163,593.101
1379.6512,589.878
1380.186,589.135
1380.7209,585.122
1381.2559,593.154
1381.7908,585.985
1382.3256,586.453
1382.8605,588.805
1383.3954,585.705
1383.9303,588.742
1384.4652,591.932
1385,592.413
1385.5349,588.896
1386.0698,587.978
1386.6047,587.562
1387.1395,593.694
1387.6744,591.172
1388.2094,588.013
1388.7443,590.03
1389.2791,587.556
1389.814,589.531
1390.3489,594.083
1390.8838,587.057
1391.4186,588.301
1391.9535,587.739
1392.4884,589.051
1393.0233,589.844
1393.5582,587.773
1394.093,590.59
1394.6279,587.362
1395.1628,586.219
1395.6978,589.975
1396.2325,587.157
1396.7675,589.818
1397.3024,592.912
1397.8373,586.9
1398.3721,591.7
1398.907,590.883
1399.4419,585.772
1399.9768,588.925
1400.5117,590.273
1401.0465,589.212
1401.5814,590.623
1402.1163,591.239
1402.6512,593.431
1403.186,590.222
1403.7209,592.044
1404.2559,590.201
1404.7908,587.421
1405.3256,593.867
1405.8605,588.214
1406.3954,587.157
1406.9303,592.902
1407.4652,587.9
1408,591.298
1408.5349,589.506
1409.0698,589.132
1409.6047,588.141
1410.1395,587.578
1410.6744,589.654
1411.2094,590.604
1411.7443,590.82
1412.2791,587.887
1412.814,592.455
1413.3489,593.494
1413.8838,584.277
1414.4186,590.51
1414.9535,590.035
1415.4884,592.082
1416.0233,591.634
1416.5582,588.168
1417.093,592.592
1417.6279,591.089
1418.1628,589.096
1418.6978,589.79
1419.2325,589.049
1419.7675,591.338
1420.3024,591.052
1420.8373,589.605
1421.3721,591.082
1421.907,589.093
1422.4419,591.767
1422.9768,589.147
1423.5117,593.495
1424.0465,595.129
1424.5814,586.896
1425.1163,589.026
1425.6512,587.052
1426.186,589.06
1426.7209,589.929
1427.2559,590.9
1427.7908,588.608
1428.3256,591.402
1428.8605,591.091
1429.3954,590.042
1429.9303,592.186
1430.4652,591.082
1431,589.74
1431.5349,590.729
1432.0698,592.121
1432.6047,588.364
1433.1395,585.959
1433.6744,591.107
1434.2094,591.186
1434.7443,592.483
1435.2791,585.976
1435.814,587.29
1436.3489,591.666
1436.8838,590.134
1437.4187,591.758
1437.9535,594.201
1438.4884,591.011
1439.0233,589.897
1439.5582,589.728
1440.093,591.939
1440.6279,589.275
1441.1628,590.971
1441.6978,588.043
1442.2325,590.992
1442.7675,590.084
1443.3024,592.888
1443.8373,588.492
1444.3721,589.76
1444.907,592.035
1445.4419,590.716
1445.9768,591.484
1446.5117,588.669
1447.0465,585.648
1447.5814,589.388
1448.1163,588.252
1448.6512,591.336
1449.186,588.122
1449.7209,588.221
1450.2559,591.242
1450.7908,586.969
1451.3256,593.023
1451.8605,591.797
1452.3954,589.954
1452.9303,589.848
1453.4652,590.956
1454,593.747
1454.5349,589.81
1455.0698,589.202
1455.6047,587.458
1456.1395,586.376
1456.6744,586.706
1457.2094,589.783
1457.7443,591.014
1458.2791,592.209
1458.814,588.3
1459.3489,590.752
1459.8838,590.936
1460.4187,593.993
1460.9535,589.711
1461.4884,589.157
1462.0233,591.613
1462.5582,590.534
1463.093,586.242
1463.6279,591.957
1464.1628,591.736
1464.6978,590.355
1465.2325,590.043
1465.7675,588.786
1466.3024,589.077
1466.8373,588.885
1467.3721,589.852
1467.907,589.974
1468.4419,590.9
1468.9768,591.047
1469.5117,589.045
1470.0465,592.042
1470.5814,589.764
1471.1163,590.178
1471.6512,591.459
1472.186,591.386
1472.7209,590.173
1473.2559,591.026
1473.7908,591.8
1474.3256,593.948
1474.8605,588.563
1475.3954,589.563
1475.9303,591.131
1476.4652,591.999
1477,589.438
1477.5349,587.884
1478.0698,590.994
1478.6047,589.963
1479.1395,589.858
1479.6744,589.434
1480.2094,593.609
1480.7443,591.789
1481.2791,586.38
1481.814,588.224
1482.3489,589.969
1482.8838,588.345
1483.4187,588.113
1483.9535,590.725
1484.4884,591.489
1485.0233,590.543
1485.5582,586.814
1486.093,594.199
1486.6279,595.295
1487.1628,586.961
1487.6978,591.385
1488.2325,592.869
1488.7675,588.813
1489.3024,587.149
1489.8373,592.104
1490.3721,589.764
1490.907,589.192
1491.4419,588.028
1491.9768,586.87
1492.5117,590.674
1493.0465,593.378
1493.5814,587.569
1494.1163,590.732
1494.6512,594.224
1495.186,589.472
1495.7209,586.914
1496.2559,594.069
1496.7908,589.614
1497.3256,590.564
1497.8605,592.897
1498.3954,590.536
1498.9303,589.656
1499.4652,588.886
1500,589.186
