Date and Time:                Thu Dec 2 21:08:08.000 2021
Software Version:             4.31.30023.0
Temperature (C):              -50
Model:                        DU420_BVF
Data Type:                    Counts (Bg Corrected)
Acquisition Mode:             Accumulate
Trigger Mode:                 Internal
Exposure Time (secs):         0.09999
Accumulate Cycle Time (secs): 0.09999
Frequency (Hz):               10.001
Number of Accumulations:      1000
Readout Mode:                 Full Vertical Binning
Horizontal binning:           1
Extended Dynamic Range:       off
Horizontally flipped:         false
Vertical Shift Speed (usecs): 8.25
Pixel Readout Time (usecs):   30.303
Serial Number:                CCD-22942
Pre-Amplifier Gain:           1x
Spurious Noise Filter Mode:   No Filter
Photon counted:               false
Data Averaging Filter Mode:   No Filter
KY328i:
Serial Number:                
Wavelength (nm):              924.465
Grating Groove Density (l/mm):150.012
Grating Blaze:                500nm
Output Flipper Port:          Direct
Filter:                       6-785 LP



350,593.105
350.53488,594.264
351.06976,590.938
351.60464,592.815
352.13953,591.235
352.67441,589.042
353.20929,591.614
353.7442,589.186
354.27908,587.886
354.81396,590.85
355.34885,594.644
355.88373,589.896
356.41861,588.258
356.95349,588.502
357.48837,589.299
358.02325,592.779
358.55814,589.614
359.09302,587.255
359.6279,591.359
360.16278,590.505
360.69766,591.529
361.23257,593.184
361.76746,590.243
362.30234,592.432
362.83722,590.336
363.3721,588.753
363.90698,588.187
364.44186,588.668
364.97675,589.211
365.51163,591.117
366.04651,586.761
366.58139,592.628
367.11627,593.175
367.65115,588.113
368.18604,588.71
368.72095,592.873
369.25583,590.353
369.79071,591.663
370.32559,592.245
370.86047,591.529
371.39536,589.928
371.93024,590.726
372.46512,592.63
373,589.487
373.53488,590.235
374.06976,592.032
374.60464,592.952
375.13953,591.18
375.67441,591.928
376.20932,593.594
376.7442,591.022
377.27908,595.24
377.81396,591.838
378.34885,589.54
378.88373,589.053
379.41861,592.104
379.95349,587.623
380.48837,588.305
381.02325,587.355
381.55814,590.497
382.09302,594.667
382.6279,591.167
383.16278,591.166
383.69766,593.232
384.23257,590.133
384.76746,588.435
385.30234,590.996
385.83722,591.368
386.3721,594.76
386.90698,596.885
387.44186,589.556
387.97675,590.651
388.51163,588.187
389.04651,592.421
389.58139,588.318
390.11627,589.77
390.65115,591.961
391.18604,591.115
391.72095,590.733
392.25583,591.629
392.79071,594.831
393.32559,591.958
393.86047,595.014
394.39536,594.951
394.93024,593.384
395.46512,592.526
396,590.924
396.53488,591.581
397.06976,589.254
397.60464,592.67
398.13953,591.851
398.67441,591.636
399.20932,589.478
399.7442,589.203
400.27908,594.648
400.81396,592.11
401.34885,590.463
401.88373,593.632
402.41861,594.3
402.95349,587.608
403.48837,588.68
404.02325,591.081
404.55814,593.65
405.09302,590.027
405.6279,592.927
406.16278,596.324
406.69769,593.395
407.23257,598.088
407.76746,589.015
408.30234,590.369
408.83722,589.308
409.3721,591.822
409.90698,591.393
410.44186,592.255
410.97675,594.131
411.51163,591.405
412.04651,592.61
412.58139,593.631
413.11627,588.791
413.65115,591.978
414.18607,592.642
414.72095,588.013
415.25583,591.13
415.79071,591.513
416.32559,592.353
416.86047,593.154
417.39536,595.132
417.93024,589.327
418.46512,594.608
419,593.749
419.53488,590.341
420.06976,593.042
420.60464,591.576
421.13953,589.886
421.67441,591.976
422.20932,593.718
422.7442,591.343
423.27908,593.612
423.81396,593.477
424.34885,592.304
424.88373,594.009
425.41861,591.997
425.95349,593.841
426.48837,589.702
427.02325,590.158
427.55814,596.717
428.09302,592.98
428.6279,589.641
429.16278,592.283
429.69769,594.731
430.23257,594.29
430.76746,596.551
431.30234,592.529
431.83722,592.946
432.3721,593.247
432.90698,595.716
433.44186,594.778
433.97675,593.827
434.51163,594.029
435.04651,594.313
435.58139,593.519
436.11627,594.409
436.65115,594.595
437.18607,594.109
437.72095,591.094
438.25583,592.056
438.79071,594.966
439.32559,594.939
439.86047,595.818
440.39536,593.692
440.93024,593.737
441.46512,592.802
442,597.683
442.53488,598.339
443.06976,595.601
443.60464,596.425
444.13953,595.145
444.67444,595.901
445.20932,595.415
445.7442,593.322
446.27908,593.431
446.81396,592.292
447.34885,597.021
447.88373,597.307
448.41861,593.996
448.95349,594.964
449.48837,593.904
450.02325,598.952
450.55814,593.238
451.09302,595.12
451.6279,596.357
452.16278,594.506
452.69769,594.609
453.23257,593.668
453.76746,596.674
454.30234,597.847
454.83722,595.859
455.3721,595.59
455.90698,599.538
456.44186,601.171
456.97675,594.404
457.51163,595.912
458.04651,601.732
458.58139,595.568
459.11627,596.224
459.65115,596.561
460.18607,599.204
460.72095,597.087
461.25583,596.595
461.79071,600.514
462.32559,594.985
462.86047,597.784
463.39536,598.012
463.93024,600.472
464.46512,598.714
465,600.805
465.53488,601.651
466.06976,602.249
466.60464,601.814
467.13953,599.552
467.67444,597.726
468.20932,603.546
468.7442,598.993
469.27908,598.866
469.81396,600.497
470.34885,604.438
470.88373,603.39
471.41861,602.39
471.95349,603.235
472.48837,601.533
473.02325,605.605
473.55814,600.01
474.09302,598.556
474.6279,601.065
475.16281,601.13
475.69769,600.282
476.23257,605.683
476.76746,600.804
477.30234,596.885
477.83722,602.666
478.3721,601.306
478.90698,603.295
479.44186,598.752
479.97675,603.149
480.51163,599.72
481.04651,599.81
481.58139,600.847
482.11627,603.625
482.65118,603.875
483.18607,601.731
483.72095,599.316
484.25583,598.535
484.79071,601.187
485.32559,604.799
485.86047,608.005
486.39536,603.156
486.93024,603.167
487.46512,605.782
488,600.755
488.53488,599.615
489.06976,603.648
489.60464,606.879
490.13953,600.002
490.67444,598.725
491.20932,609.462
491.7442,602.312
492.27908,607.605
492.81396,605.441
493.34885,610.085
493.88373,603.182
494.41861,605.43
494.95349,607.217
495.48837,605.571
496.02325,604.568
496.55814,607.411
497.09302,607.455
497.6279,606.617
498.16281,604.399
498.69769,611.635
499.23257,608.217
499.76746,605.449
500.30234,605.384
500.83722,607.894
501.3721,612.828
501.90698,609.635
502.44186,603.265
502.97675,607.516
503.51163,606.575
504.04651,606.465
504.58139,610.255
505.11627,615.274
505.65118,608.418
506.18607,611.406
506.72095,609.49
507.25583,615.086
507.79071,618.045
508.32559,613.971
508.86047,612.579
509.39536,613.964
509.93024,615.176
510.46512,616.103
511,619.693
511.53488,615.504
512.06976,616.382
512.60468,618.119
513.13953,616.428
513.67444,619.884
514.20929,614.012
514.7442,612.229
515.27905,623.346
515.81396,619.723
516.34882,626.154
516.88373,622.585
517.41864,624.565
517.95349,628.544
518.4884,625.234
519.02325,625.088
519.55817,623.201
520.09302,629.318
520.62793,622.098
521.16278,624.087
521.69769,627.621
522.23254,631.894
522.76746,626.137
523.30231,626.115
523.83722,630.824
524.37207,631.747
524.90698,635.928
525.44189,631.392
525.97675,635.258
526.51166,630.24
527.04651,624.447
527.58142,633.699
528.11627,632.912
528.65118,640.554
529.18604,632.63
529.72095,642.77
530.2558,642.131
530.79071,632.365
531.32556,639.432
531.86047,640.283
532.39539,638.934
532.93024,639.026
533.46515,642.55
534,651.97
534.53491,656.104
535.06976,640.439
535.60468,647.728
536.13953,651.312
536.67444,653.306
537.20929,653.829
537.7442,663.266
538.27905,651.667
538.81396,648.262
539.34882,661.089
539.88373,658.399
540.41864,661.043
540.95349,660.181
541.4884,656.159
542.02325,663.511
542.55817,664.585
543.09302,661.944
543.62793,673.284
544.16278,667.889
544.69769,663.734
545.23254,657.517
545.76746,660.985
546.30231,675.921
546.83722,668.5
547.37213,654.897
547.90698,673.503
548.44189,672.34
548.97675,675.031
549.51166,671.946
550.04651,673.745
550.58142,669.417
551.11627,674.602
551.65118,670.371
552.18604,686.572
552.72095,680.624
553.2558,677.294
553.79071,674.121
554.32556,681.805
554.86047,679.501
555.39539,688.898
555.93024,695.183
556.46515,680.834
557,679
557.53491,685.554
558.06976,699.344
558.60468,682.17
559.13953,691.164
559.67444,691.997
560.20929,695.103
560.7442,697.194
561.27905,693.622
561.81396,691.241
562.34882,695.595
562.88373,701.685
563.41864,689.373
563.95349,702.667
564.4884,701.789
565.02325,695.439
565.55817,697.653
566.09302,703.101
566.62793,709.493
567.16278,699.048
567.69769,708.081
568.23254,717.456
568.76746,714.24
569.30231,713.366
569.83722,712.487
570.37213,709.643
570.90698,708.134
571.44189,711.925
571.97675,706.768
572.51166,708.919
573.04651,706.491
573.58142,714.56
574.11627,715.049
574.65118,704.851
575.18604,713.686
575.72095,701.446
576.2558,715.673
576.79071,713.839
577.32556,715.574
577.86047,714.524
578.39539,715.997
578.93024,722.535
579.46515,712.73
580,722.734
580.53491,722.763
581.06976,708.852
581.60468,719.382
582.13953,724.236
582.67444,714.5
583.20929,718.614
583.7442,714.934
584.27905,718.463
584.81396,723.878
585.34888,714.404
585.88373,723.508
586.41864,721.677
586.95349,720.007
587.4884,717.686
588.02325,717.107
588.55817,722.615
589.09302,719.992
589.62793,720.544
590.16278,728.624
590.69769,720.089
591.23254,702.958
591.76746,724.131
592.30231,706.774
592.83722,718.359
593.37213,720.118
593.90698,717.967
594.44189,716.505
594.97675,723.376
595.51166,714.175
596.04651,710.405
596.58142,705.041
597.11627,705.34
597.65118,693.942
598.18604,697.027
598.72095,706.946
599.2558,690.487
599.79071,699.106
600.32556,713.282
600.86047,695.967
601.39539,695.543
601.93024,703.579
602.46515,702.895
603,702.049
603.53491,693.803
604.06976,702.604
604.60468,692.955
605.13953,700.393
605.67444,694.742
606.20929,696.021
606.7442,691.657
607.27905,699.987
607.81396,695.641
608.34888,697.444
608.88373,689.156
609.41864,703.449
609.95349,706.415
610.4884,680.678
611.02325,687.055
611.55817,704.149
612.09302,689.375
612.62793,681.528
613.16278,698.439
613.69769,699.219
614.23254,695.773
614.76746,691.793
615.30231,684.427
615.83722,690.975
616.37213,691.87
616.90698,689.067
617.44189,692.642
617.97675,688.116
618.51166,700.652
619.04651,708.861
619.58142,701.156
620.11627,699.757
620.65118,686.802
621.18604,701.27
621.72095,694.333
622.2558,699.778
622.79071,701.271
623.32556,706.555
623.86047,698.024
624.39539,707.495
624.93024,699.227
625.46515,700.183
626,693.361
626.53491,699.593
627.06976,698.373
627.60468,689.338
628.13953,701.069
628.67444,704.247
629.20929,704.983
629.7442,699.423
630.27905,694.604
630.81396,703.9
631.34888,695.098
631.88373,684.505
632.41864,709.798
632.95349,691.158
633.4884,698.54
634.02325,699.919
634.55817,688.543
635.09302,697.897
635.62793,692.386
636.16278,692.964
636.69769,693.944
637.23254,694.087
637.76746,687.214
638.30231,688.273
638.83722,698.955
639.37213,689.519
639.90698,701.404
640.44189,700.948
640.97675,692.694
641.51166,684.666
642.04651,697.732
642.58142,705.482
643.11627,693.426
643.65118,686.014
644.18604,685.917
644.72095,694.567
645.2558,695.693
645.79071,689.644
646.32562,690.662
646.86047,698.605
647.39539,694.278
647.93024,681.464
648.46515,698.918
649,693.868
649.53491,684.856
650.06976,706.591
650.60468,701.075
651.13953,699.529
651.67444,705.494
652.20929,705.848
652.7442,706.833
653.27905,711.894
653.81396,705.301
654.34888,709.359
654.88373,699.746
655.41864,694.865
655.95349,706.912
656.4884,696.744
657.02325,695.391
657.55817,692.901
658.09302,691.802
658.62793,695.543
659.16278,691.524
659.69769,690.691
660.23254,700.904
660.76746,696.111
661.30231,691.66
661.83722,689.877
662.37213,688.988
662.90698,692.729
663.44189,692.789
663.97675,689.462
664.51166,692.495
665.04651,688.888
665.58142,689.582
666.11627,689.382
666.65118,685.747
667.18604,688.968
667.72095,691.119
668.2558,684.434
668.79071,695.078
669.32562,694.16
669.86047,686.516
670.39539,679.392
670.93024,687.34
671.46515,691.49
672,688.748
672.53491,695.5
673.06976,698.471
673.60468,687.401
674.13953,688.112
674.67444,690.152
675.20929,682.829
675.7442,682.607
676.27905,691.923
676.81396,685.002
677.34888,683.02
677.88373,686.32
678.41864,691.962
678.95349,686.366
679.4884,680.14
680.02325,682.23
680.55817,685.322
681.09302,678.922
681.62793,683.348
682.16278,677.35
682.69769,677.702
683.23254,673.636
683.76746,672.167
684.30237,675.557
684.83722,679.678
685.37213,678.207
685.90698,682.973
686.44189,688.939
686.97675,694.914
687.51166,690.016
688.04651,690.227
688.58142,682.883
689.11627,687.16
689.65118,680.894
690.18604,686.012
690.72095,692.011
691.2558,692.88
691.79071,689.43
692.32562,694.536
692.86047,690.76
693.39539,698.556
693.93024,695.622
694.46515,698.116
695,687.77
695.53491,682.92
696.06976,685.518
696.60468,678.925
697.13953,676.173
697.67444,673.252
698.20929,678.226
698.7442,674.445
699.27905,672.525
699.81396,674.596
700.34888,670.546
700.88373,656.983
701.41864,670.621
701.95349,670.24
702.4884,658.48
703.02325,666.44
703.55817,663.682
704.09302,662.03
704.62793,667.831
705.16278,656.132
705.69769,654.826
706.23254,659.028
706.76746,662.659
707.30237,667.128
707.83722,661.036
708.37213,651.341
708.90698,664.161
709.44189,655.984
709.97675,659.568
710.51166,662.19
711.04651,659.213
711.58142,660.327
712.11627,660.191
712.65118,652.859
713.18604,661.114
713.72095,668.695
714.2558,661.25
714.79071,674.925
715.32562,676.316
715.86047,681.877
716.39539,692.871
716.93024,687.484
717.46515,684.782
718,684.97
718.53491,677.493
719.06976,679.888
719.60468,684.419
720.13953,682.603
720.67444,662.184
721.20929,665.255
721.7442,675.184
722.27911,662.093
722.81396,668.299
723.34888,654.851
723.88373,655.968
724.41864,662.469
724.95349,663.887
725.4884,662.012
726.02325,658.715
726.55817,644.154
727.09302,643.714
727.62793,655.48
728.16278,649.967
728.69769,649.553
729.23254,659.56
729.76746,655.785
730.30237,663.533
730.83722,666.095
731.37213,666.043
731.90698,667.008
732.44189,664.24
732.97675,661.021
733.51166,667.044
734.04651,669.136
734.58142,666.298
735.11627,672.207
735.65118,671.187
736.18604,677.579
736.72095,678.705
737.2558,674.969
737.79071,673.606
738.32562,669.359
738.86047,664.202
739.39539,650.724
739.93024,650.504
740.46515,658.309
741,672.471
741.53491,659.808
742.06976,649.072
742.60468,655.659
743.13953,659.318
743.67444,658.516
744.20929,660.164
744.7442,663.267
745.27911,661.779
745.81396,667.142
746.34888,665.169
746.88373,663.569
747.41864,649.089
747.95349,657.21
748.4884,660.278
749.02325,651.821
749.55817,654.985
750.09302,646.912
750.62793,646.958
751.16278,642.042
751.69769,638.157
752.23254,654.8
752.76746,646.883
753.30237,643.661
753.83722,645.96
754.37213,651.474
754.90698,654.107
755.44189,643.408
755.97675,640.953
756.51166,641.131
757.04651,636.306
757.58142,636.93
758.11627,643.279
758.65118,648.729
759.18604,648.54
759.72095,647.956
760.25586,653.761
760.79071,639.214
761.32562,648.08
761.86047,648.921
762.39539,643.331
762.93024,639.697
763.46515,642.943
764,642.154
764.53491,646.618
765.06976,643.926
765.60468,645.687
766.13953,649.213
766.67444,658.657
767.20929,654.161
767.7442,680.676
768.27911,716.187
768.81396,710.979
769.34888,707.827
769.88373,677.847
770.41864,667.215
770.95349,663.504
771.4884,652.748
772.02325,654.392
772.55817,639.91
773.09302,639.358
773.62793,636.307
774.16278,637.657
774.69769,638.541
775.23254,634.642
775.76746,636.884
776.30237,624
776.83722,629.114
777.37213,623.07
777.90698,627.756
778.44189,629.111
778.97675,630.797
779.51166,632.189
780.04651,628.164
780.58142,624.13
781.11627,624.327
781.65118,621.781
782.18604,635.088
782.72095,625.682
783.25586,618.625
783.79071,621.215
784.32562,625.992
784.86047,624.104
785.39539,628.517
785.93024,620.048
786.46515,624.495
787,621.949
787.53491,616.762
788.06976,621.201
788.60468,626.015
789.13953,628.909
789.67444,622.667
790.20929,617.815
790.7442,621.849
791.27911,616.229
791.81396,626.461
792.34888,631.317
792.88373,631.056
793.41864,641.361
793.95349,634.473
794.4884,636.591
795.02325,634.212
795.55817,630.684
796.09302,632.457
796.62793,625.01
797.16278,624.602
797.69769,625.453
798.23254,622.04
798.76746,622.67
799.30237,625.481
799.83722,629.615
800.37213,630.996
800.90698,631.982
801.44189,637.547
801.97675,639.503
802.51166,633.248
803.04651,631.571
803.58142,625.063
804.11627,633.011
804.65118,630.394
805.18604,626.581
805.72095,625.551
806.25586,630.448
806.79071,628.277
807.32562,627.013
807.86047,620.508
808.39539,619.636
808.93024,621.189
809.46515,619.675
810,628.763
810.53491,631.824
811.06976,621.499
811.60468,633.086
812.13953,621.86
812.67444,623.899
813.20929,632.175
813.7442,626.485
814.27911,623.848
814.81396,636.986
815.34888,633.48
815.88373,627.949
816.41864,622.868
816.95349,622.843
817.4884,621.596
818.02325,621.292
818.55817,629.688
819.09302,618.026
819.62793,619.445
820.16278,624.019
820.69769,626.284
821.2326,628.021
821.76746,626.685
822.30237,624.036
822.83722,636.726
823.37213,643.18
823.90698,639.956
824.44189,643.2
824.97675,662.207
825.51166,674.243
826.04651,737.009
826.58142,918.623
827.11627,1136.9
827.65118,1197.53
828.18604,1125.04
828.72095,1023.99
829.25586,939.869
829.79071,858.057
830.32562,805.156
830.86047,803.011
831.39539,844.196
831.93024,860.685
832.46515,853.583
833,803.898
833.53491,749.443
834.06976,705.778
834.60468,693.331
835.13953,673.937
835.67444,671.994
836.20929,654.698
836.7442,638.517
837.27911,646.827
837.81396,669.71
838.34888,709.701
838.88373,719.232
839.41864,716.848
839.95349,686.217
840.4884,664.987
841.02325,660.885
841.55817,652.934
842.09302,642.449
842.62793,627.905
843.16278,629.76
843.69769,624.263
844.2326,634.772
844.76746,645.676
845.30237,647.645
845.83722,647.685
846.37213,630.845
846.90698,627.837
847.44189,616.39
847.97675,616.103
848.51166,609.291
849.04651,612.972
849.58142,608.959
850.11627,609.834
850.65118,606.575
851.18604,602.317
851.72095,604.687
852.25586,607.069
852.79071,606.293
853.32562,604.697
853.86047,596.606
854.39539,599.662
854.93024,602.563
855.46515,598.916
856,603.49
856.53491,601.883
857.06976,600.466
857.60468,605.528
858.13953,599.431
858.67444,601.295
859.20935,603.785
859.7442,599.117
860.27911,601.279
860.81396,601.774
861.34888,602.5
861.88373,599.126
862.41864,598.023
862.95349,602.827
863.4884,602.744
864.02325,603.078
864.55817,598.359
865.09302,603.848
865.62793,603.934
866.16278,597.443
866.69769,598.865
867.2326,599.797
867.76746,602.931
868.30237,601.139
868.83722,600.784
869.37213,599.599
869.90698,602.903
870.44189,604.443
870.97675,604.337
871.51166,603.988
872.04651,603.322
872.58142,607.539
873.11627,607.482
873.65118,602.258
874.18604,600.168
874.72095,602.326
875.25586,602.999
875.79071,604.518
876.32562,606.15
876.86047,605.983
877.39539,605.597
877.93024,607.892
878.46515,609.195
879,609.278
879.53491,606.605
880.06976,604.945
880.60468,607.246
881.13953,608.553
881.67444,606.716
882.20935,610.364
882.7442,611.992
883.27911,615.127
883.81396,616.71
884.34888,627.481
884.88373,655.749
885.41864,722.271
885.95349,820.856
886.4884,866.102
887.02325,846.869
887.55817,803.785
888.09302,751.454
888.62793,720.359
889.16278,690.018
889.69769,667.616
890.2326,656.086
890.76746,636.594
891.30237,633.017
891.83722,628.938
892.37213,620.861
892.90698,617.144
893.44189,613.79
893.97675,609.843
894.51166,614.155
895.04651,613.781
895.58142,611.742
896.11627,612.462
896.65118,613.089
897.18604,614.405
897.72095,615.285
898.25586,628.003
898.79071,643.763
899.32562,652.363
899.86047,661.133
900.39539,647.377
900.93024,632.258
901.46515,632.578
902,627.349
902.53491,621.844
903.06976,617.546
903.60468,611.896
904.13953,615.514
904.67444,610.237
905.20935,603.25
905.7442,603.722
906.27911,606.689
906.81396,611.009
907.34888,604.949
907.88373,615.838
908.41864,659.905
908.95349,682.293
909.4884,647.06
910.02325,637.644
910.55817,631.739
911.09302,631.533
911.62793,616.564
912.16278,603.85
912.69769,610.981
913.2326,604.717
913.76746,604.531
914.30237,600.748
914.83722,599.122
915.37213,599.468
915.90698,599.902
916.44189,598.069
916.97675,599.082
917.51166,604.292
918.04651,608.208
918.58142,611.971
919.11627,619.808
919.65118,635.025
920.1861,656.362
920.72095,661.124
921.25586,674.294
921.79071,669.385
922.32562,642.589
922.86047,635.229
923.39539,629.72
923.93024,626.599
924.46515,616.708
925,615.179
925.53491,608.035
926.06976,605.293
926.60468,606.314
927.13953,604.008
927.67444,602.022
928.20935,606.806
928.7442,602.798
929.27911,599.528
929.81396,599.399
930.34888,601.218
930.88373,600.541
931.41864,595.504
931.95349,593.094
932.4884,597.003
933.02325,599.138
933.55817,596.634
934.09302,595.83
934.62793,596.465
935.16278,599.153
935.69769,602.583
936.2326,597.294
936.76746,593.884
937.30237,598.157
937.83722,596.868
938.37213,598.328
938.90698,594.065
939.44189,597.323
939.97675,596.292
940.51166,597.81
941.04651,604.331
941.58142,604.18
942.11627,605.257
942.65118,609.801
943.1861,610.49
943.72095,605.429
944.25586,606.296
944.79071,609.257
945.32562,612.269
945.86047,609.703
946.39539,602.306
946.93024,603.551
947.46515,601.21
948,604.209
948.53491,605.502
949.06976,607.568
949.60468,606.164
950.13953,603.507
950.67444,599.947
951.20935,605.903
951.7442,606.349
952.27911,598.92
952.81396,606.074
953.34888,609.944
953.88373,606.94
954.41864,608.412
954.95349,610.171
955.4884,606.374
956.02325,605.744
956.55817,614.231
957.09302,611.72
957.62793,605.614
958.16284,612.096
958.69769,608.858
959.2326,604.135
959.76746,603.785
960.30237,598.875
960.83722,594.969
961.37213,596.204
961.90698,595.483
962.44189,596.498
962.97675,601.891
963.51166,597.421
964.04651,594.547
964.58142,595.698
965.11627,595.233
965.65118,597.135
966.1861,597.928
966.72095,594.03
967.25586,595.96
967.79071,597.479
968.32562,594.514
968.86047,596.304
969.39539,597.179
969.93024,596.913
970.46515,598.941
971,597.028
971.53491,598.528
972.06976,597.844
972.60468,593.441
973.13953,596.724
973.67444,594.072
974.20935,598.563
974.7442,599.262
975.27911,600.48
975.81396,601.226
976.34888,597.65
976.88373,600.123
977.41864,599.017
977.95349,599.905
978.4884,595.452
979.02325,594.203
979.55817,595.322
980.09302,598.315
980.62793,597.323
981.16284,597.835
981.69769,599.366
982.2326,605.294
982.76746,599.006
983.30237,612.759
983.83722,637.497
984.37213,644.026
984.90698,636.726
985.44189,625.328
985.97675,627.328
986.51166,614.538
987.04651,602.974
987.58142,601.888
988.11627,596.576
988.65118,593.365
989.1861,589.551
989.72095,599.11
990.25586,592.021
990.79071,595.497
991.32562,595.489
991.86047,593.618
992.39539,593.298
992.93024,598.964
993.46515,593.895
994,592.994
994.53491,596.08
995.06976,594.926
995.60468,605.553
996.13959,612.806
996.67444,622.467
997.20935,622.067
997.7442,617.132
998.27911,609.914
998.81396,603.903
999.34888,603.616
999.88373,601.728
1000.4186,601.569
1000.9535,593.929
1001.4884,597.144
1002.0233,594.925
1002.5582,593.615
1003.093,594.069
1003.6279,592.889
1004.1628,590.64
1004.6977,592.303
1005.2326,594.531
1005.7675,588.995
1006.3024,592.115
1006.8372,594.456
1007.3721,592.602
1007.907,591.814
1008.4419,592.406
1008.9767,589.544
1009.5117,589.316
1010.0465,591.444
1010.5814,592.227
1011.1163,591.441
1011.6512,587.42
1012.1861,589.371
1012.7209,592.028
1013.2559,587.438
1013.7907,588.746
1014.3256,590.077
1014.8605,591.319
1015.3954,592.831
1015.9302,590.915
1016.4651,592.721
1017,591.723
1017.5349,593.105
1018.0698,595.411
1018.6047,592.326
1019.1396,593.1
1019.6744,589.638
1020.2094,594.991
1020.7442,593.643
1021.2791,589.827
1021.814,595.307
1022.3489,589.989
1022.8837,585.491
1023.4186,591.816
1023.9535,587.622
1024.4884,594.545
1025.0233,592.575
1025.5581,588.341
1026.093,589.77
1026.6279,587.822
1027.1628,591.615
1027.6978,594.954
1028.2325,589.275
1028.7675,586.114
1029.3024,589.702
1029.8373,591.402
1030.3721,589.723
1030.907,589.978
1031.4419,596.28
1031.9768,589.08
1032.5116,590.108
1033.0465,592.662
1033.5814,592.599
1034.1163,591.305
1034.6512,590.013
1035.186,589.001
1035.7209,590.296
1036.2559,588.93
1036.7908,588.848
1037.3256,593.018
1037.8605,589.024
1038.3954,592.253
1038.9303,588.748
1039.4651,591.236
1040,591.308
1040.5349,586.238
1041.0698,593.419
1041.6046,591.978
1042.1395,588.296
1042.6744,590.624
1043.2094,588.621
1043.7443,592.605
1044.2791,585.552
1044.814,586.248
1045.3489,590.848
1045.8838,589.071
1046.4186,589.884
1046.9535,586.879
1047.4884,587.182
1048.0233,587.998
1048.5581,586.352
1049.093,586.887
1049.6279,589.331
1050.1628,589.428
1050.6978,589.597
1051.2325,591.732
1051.7675,589.764
1052.3024,591.776
1052.8373,588.531
1053.3721,589.673
1053.907,589.628
1054.4419,592.615
1054.9768,590.614
1055.5116,591.51
1056.0465,589.097
1056.5814,588.486
1057.1163,592.734
1057.6512,588.486
1058.186,588.273
1058.7209,588.757
1059.2559,589.874
1059.7908,590.186
1060.3256,587.834
1060.8605,587.952
1061.3954,589.353
1061.9303,591.643
1062.4651,595.391
1063,591.735
1063.5349,587.629
1064.0698,590.308
1064.6047,590.912
1065.1395,589.202
1065.6744,589.752
1066.2094,591.038
1066.7443,588.79
1067.2791,586.72
1067.814,589.746
1068.3489,590.024
1068.8838,592.145
1069.4186,590.31
1069.9535,588.785
1070.4884,587.821
1071.0233,586.957
1071.5581,591.021
1072.093,589.605
1072.6279,590.525
1073.1628,591.329
1073.6978,591.554
1074.2325,590.956
1074.7675,590.448
1075.3024,590.686
1075.8373,590.052
1076.3721,590.447
1076.907,593.918
1077.4419,591.615
1077.9768,588.511
1078.5116,592.105
1079.0465,590.336
1079.5814,590.542
1080.1163,591.087
1080.6512,590.919
1081.186,590.971
1081.7209,589.183
1082.2559,592.697
1082.7908,593.671
1083.3256,591.635
1083.8605,589.577
1084.3954,590.307
1084.9303,590.621
1085.4651,589.168
1086,588.249
1086.5349,590.047
1087.0698,591.491
1087.6047,589.443
1088.1395,592.163
1088.6744,589.456
1089.2094,588.711
1089.7443,591.128
1090.2791,588.566
1090.814,587.497
1091.3489,590.963
1091.8838,588.271
1092.4186,589.302
1092.9535,589.856
1093.4884,590.558
1094.0233,590.271
1094.5581,593.498
1095.093,588.908
1095.6279,588.869
1096.1628,592.439
1096.6978,590.098
1097.2325,587.003
1097.7675,590.347
1098.3024,590.532
1098.8373,590.015
1099.3721,591.347
1099.907,591.628
1100.4419,591.52
1100.9768,592.2
1101.5116,590.205
1102.0465,591.68
1102.5814,593.969
1103.1163,589.263
1103.6512,586.674
1104.186,590.319
1104.7209,591.997
1105.2559,589.829
1105.7908,593.229
1106.3256,590.158
1106.8605,588.501
1107.3954,587.357
1107.9303,588.692
1108.4651,589.887
1109,592.157
1109.5349,593.31
1110.0698,589.437
1110.6047,592.222
1111.1395,590.07
1111.6744,587.189
1112.2094,588.891
1112.7443,590.3
1113.2791,591.542
1113.814,589.286
1114.3489,592.167
1114.8838,593.795
1115.4186,593.304
1115.9535,589.532
1116.4884,587.43
1117.0233,590.52
1117.5581,590.267
1118.093,586.631
1118.6279,592.278
1119.1628,590.093
1119.6978,593.922
1120.2325,590.399
1120.7675,592.381
1121.3024,588.388
1121.8373,588.776
1122.3721,589.348
1122.907,589.152
1123.4419,591.794
1123.9768,589.214
1124.5116,588.748
1125.0465,586.46
1125.5814,587.548
1126.1163,590.876
1126.6512,589.109
1127.186,594.244
1127.7209,590.881
1128.2559,587.917
1128.7908,590.789
1129.3256,591.065
1129.8605,591.106
1130.3954,590.666
1130.9303,589.221
1131.4651,592.583
1132,590.765
1132.5349,589.804
1133.0698,590.452
1133.6047,590.955
1134.1395,591.064
1134.6744,591.822
1135.2094,589.968
1135.7443,593.513
1136.2791,591.82
1136.814,588.599
1137.3489,590.656
1137.8838,587.789
1138.4186,591.448
1138.9535,589.049
1139.4884,593.017
1140.0233,587.088
1140.5581,588.148
1141.093,593.762
1141.6279,590.576
1142.1628,594.345
1142.6978,588.013
1143.2325,586.322
1143.7675,589.005
1144.3024,590.335
1144.8373,586.896
1145.3721,590.551
1145.907,594.401
1146.4419,592.066
1146.9768,589.688
1147.5116,588.46
1148.0465,593.642
1148.5814,589.7
1149.1163,588.496
1149.6512,590.731
1150.186,593.535
1150.7209,587.406
1151.2559,589.815
1151.7908,590.596
1152.3256,590.561
1152.8605,587.914
1153.3954,587.382
1153.9303,589.853
1154.4651,586.915
1155,587.847
1155.5349,591.565
1156.0698,590.549
1156.6047,589.887
1157.1395,588.456
1157.6744,593.005
1158.2094,590.519
1158.7443,588.961
1159.2791,593.986
1159.814,593.281
1160.3489,592.041
1160.8838,589.296
1161.4186,589.683
1161.9535,591.663
1162.4884,593.539
1163.0233,588.768
1163.5582,589.503
1164.093,586.769
1164.6279,588.653
1165.1628,586.444
1165.6978,587.709
1166.2325,592.223
1166.7675,589.692
1167.3024,587.045
1167.8373,588.773
1168.3721,590.738
1168.907,589.35
1169.4419,592.122
1169.9768,591.466
1170.5116,588.061
1171.0465,591.621
1171.5814,589.703
1172.1163,591.157
1172.6512,592.808
1173.186,586.985
1173.7209,589.089
1174.2559,590.271
1174.7908,589.276
1175.3256,591.078
1175.8605,594.563
1176.3954,592.994
1176.9303,590.137
1177.4651,590.828
1178,588.201
1178.5349,589.986
1179.0698,590.099
1179.6047,590.66
1180.1395,590.743
1180.6744,589.499
1181.2094,585.054
1181.7443,591.188
1182.2791,591.2
1182.814,589.385
1183.3489,594.323
1183.8838,592.265
1184.4186,587.439
1184.9535,589.424
1185.4884,589.936
1186.0233,591.276
1186.5582,597.273
1187.093,590.09
1187.6279,587.687
1188.1628,591.112
1188.6978,591.441
1189.2325,588.505
1189.7675,593.252
1190.3024,591.796
1190.8373,589.839
1191.3721,585.753
1191.907,587.978
1192.4419,588.796
1192.9768,590.346
1193.5116,591.763
1194.0465,591.831
1194.5814,588.895
1195.1163,586.991
1195.6512,590.446
1196.186,591.099
1196.7209,592.466
1197.2559,594.033
1197.7908,595.044
1198.3256,590.008
1198.8605,590.756
1199.3954,587.124
1199.9303,588.005
1200.4651,590.972
1201,589.109
1201.5349,584.268
1202.0698,591.196
1202.6047,590.678
1203.1395,589.058
1203.6744,588.01
1204.2094,590.582
1204.7443,594.713
1205.2791,588.987
1205.814,587.958
1206.3489,590.129
1206.8838,588.31
1207.4186,587.992
1207.9535,593.29
1208.4884,590.319
1209.0233,590.167
1209.5582,591.923
1210.093,589.624
1210.6279,588.988
1211.1628,588.939
1211.6978,589.256
1212.2325,590.536
1212.7675,590.812
1213.3024,588.99
1213.8373,591.458
1214.3721,591.9
1214.907,591.104
1215.4419,589.421
1215.9768,590.351
1216.5116,591.986
1217.0465,589.405
1217.5814,590.928
1218.1163,587.025
1218.6512,593.897
1219.186,592.397
1219.7209,590.912
1220.2559,589.941
1220.7908,593.037
1221.3256,590.235
1221.8605,590.102
1222.3954,586.733
1222.9303,589.321
1223.4651,590.97
1224,588.111
1224.5349,591.842
1225.0698,592.128
1225.6047,588.434
1226.1395,587.872
1226.6744,589.624
1227.2094,592.719
1227.7443,589.448
1228.2791,591.062
1228.814,591.561
1229.3489,585.178
1229.8838,586.537
1230.4186,593.189
1230.9535,592.47
1231.4884,587.826
1232.0233,589.638
1232.5582,594.621
1233.093,589.682
1233.6279,593.732
1234.1628,594.314
1234.6978,590.826
1235.2325,593.558
1235.7675,591.124
1236.3024,591.217
1236.8373,589.553
1237.3721,589.906
1237.907,587.99
1238.4419,591.41
1238.9768,590.915
1239.5117,586.298
1240.0465,589.907
1240.5814,592.372
1241.1163,593.371
1241.6512,591.172
1242.186,586.876
1242.7209,587.773
1243.2559,587.55
1243.7908,590.225
1244.3256,588.427
1244.8605,590.132
1245.3954,592.481
1245.9303,590.454
1246.4651,587.934
1247,592.532
1247.5349,592.308
1248.0698,588.373
1248.6047,585.271
1249.1395,591.186
1249.6744,593.462
1250.2094,589.431
1250.7443,590.888
1251.2791,593.941
1251.814,590.163
1252.3489,586.961
1252.8838,591.231
1253.4186,591.089
1253.9535,588.879
1254.4884,590.501
1255.0233,591.222
1255.5582,589.334
1256.093,585.546
1256.6279,589.457
1257.1628,589.039
1257.6978,586.005
1258.2325,589.547
1258.7675,593.113
1259.3024,593.025
1259.8373,591.132
1260.3721,588.526
1260.907,587.49
1261.4419,590.927
1261.9768,592.271
1262.5117,587.625
1263.0465,592.865
1263.5814,591.514
1264.1163,592.312
1264.6512,592.458
1265.186,587.893
1265.7209,591.06
1266.2559,587.255
1266.7908,591.446
1267.3256,591.244
1267.8605,589.896
1268.3954,591.59
1268.9303,592.169
1269.4651,589.243
1270,590.106
1270.5349,586.434
1271.0698,591.765
1271.6047,595.398
1272.1395,589.101
1272.6744,586.243
1273.2094,590.62
1273.7443,589.799
1274.2791,593.466
1274.814,588.874
1275.3489,588.158
1275.8838,587.447
1276.4186,588.111
1276.9535,591.563
1277.4884,593.015
1278.0233,590.774
1278.5582,590.864
1279.093,590.572
1279.6279,592.231
1280.1628,589.528
1280.6978,590.333
1281.2325,590.749
1281.7675,590.123
1282.3024,590.481
1282.8373,589.132
1283.3721,589.277
1283.907,590.354
1284.4419,591.494
1284.9768,588.828
1285.5117,589.923
1286.0465,587.771
1286.5814,589.09
1287.1163,590.253
1287.6512,589.765
1288.186,589.106
1288.7209,589.572
1289.2559,592.904
1289.7908,589.865
1290.3256,592.179
1290.8605,591.255
1291.3954,591.168
1291.9303,592.242
1292.4651,589.791
1293,588.809
1293.5349,592.627
1294.0698,590.935
1294.6047,592.777
1295.1395,592.044
1295.6744,589.895
1296.2094,588.597
1296.7443,588.216
1297.2791,590.512
1297.814,591.957
1298.3489,590.346
1298.8838,593.21
1299.4186,590.656
1299.9535,589.372
1300.4884,589.412
1301.0233,589.15
1301.5582,588.318
1302.093,587.802
1302.6279,587.517
1303.1628,591.761
1303.6978,589.357
1304.2325,588.781
1304.7675,588.079
1305.3024,587.082
1305.8373,593.784
1306.3721,590.056
1306.907,588.962
1307.4419,588.882
1307.9768,591.349
1308.5117,587.585
1309.0465,589.137
1309.5814,592.05
1310.1163,591.056
1310.6512,588.434
1311.186,588.965
1311.7209,589.477
1312.2559,587.643
1312.7908,587.16
1313.3256,593.587
1313.8605,588.321
1314.3954,591.787
1314.9303,591.923
1315.4651,592.758
1316,587.943
1316.5349,590.172
1317.0698,590.511
1317.6047,589.181
1318.1395,588.339
1318.6744,593.986
1319.2094,589.379
1319.7443,589.66
1320.2791,593.076
1320.814,588.948
1321.3489,587.589
1321.8838,592.737
1322.4186,590.354
1322.9535,591.756
1323.4884,591.168
1324.0233,587.996
1324.5582,590.236
1325.093,593.094
1325.6279,591.596
1326.1628,589.76
1326.6978,590.5
1327.2325,590.11
1327.7675,587.628
1328.3024,588.297
1328.8373,590.406
1329.3721,589.74
1329.907,590.406
1330.4419,594.432
1330.9768,589.347
1331.5117,594.406
1332.0465,589.776
1332.5814,587.966
1333.1163,587.997
1333.6512,590.124
1334.186,592.232
1334.7209,592.661
1335.2559,589.579
1335.7908,590.73
1336.3256,591.524
1336.8605,589.901
1337.3954,592.187
1337.9303,589.11
1338.4652,588.159
1339,587.139
1339.5349,591.735
1340.0698,589.698
1340.6047,592.533
1341.1395,589.438
1341.6744,590.753
1342.2094,592.992
1342.7443,591.834
1343.2791,589.156
1343.814,591.854
1344.3489,587.056
1344.8838,588.575
1345.4186,591.021
1345.9535,588.705
1346.4884,590.7
1347.0233,588.154
1347.5582,591.902
1348.093,590.479
1348.6279,589.739
1349.1628,588.474
1349.6978,595.438
1350.2325,589.23
1350.7675,585.814
1351.3024,589.937
1351.8373,590.932
1352.3721,589.014
1352.907,589.822
1353.4419,589.8
1353.9768,592.393
1354.5117,591.213
1355.0465,594.987
1355.5814,592.222
1356.1163,591.681
1356.6512,589.789
1357.186,588.718
1357.7209,589.87
1358.2559,589.202
1358.7908,589.691
1359.3256,591.586
1359.8605,594.145
1360.3954,589.069
1360.9303,588.94
1361.4652,587.349
1362,593.106
1362.5349,591.437
1363.0698,595.091
1363.6047,590.006
1364.1395,586.784
1364.6744,589.008
1365.2094,587.208
1365.7443,587.522
1366.2791,588.734
1366.814,587.629
1367.3489,589.64
1367.8838,589.859
1368.4186,591.896
1368.9535,590.933
1369.4884,593.051
1370.0233,587.948
1370.5582,591.331
1371.093,591.663
1371.6279,590.339
1372.1628,591.373
1372.6978,589.549
1373.2325,592.15
1373.7675,590.435
1374.3024,592.709
1374.8373,589.728
1375.3721,590.765
1375.907,588.7
1376.4419,593.114
1376.9768,588.62
1377.5117,594.307
1378.0465,590.48
1378.5814,589.056
1379.1163,586.023
1379.6512,591.461
1380.186,594.113
1380.7209,593.888
1381.2559,592.434
1381.7908,590.937
1382.3256,593.01
1382.8605,593.527
1383.3954,593.855
1383.9303,591.461
1384.4652,591.636
1385,588.028
1385.5349,591.048
1386.0698,587.968
1386.6047,589.212
1387.1395,592.17
1387.6744,588.965
1388.2094,595.151
1388.7443,594.354
1389.2791,585.468
1389.814,589.293
1390.3489,590.959
1390.8838,587.343
1391.4186,590.045
1391.9535,586.353
1392.4884,588.341
1393.0233,591.585
1393.5582,590.533
1394.093,592.922
1394.6279,589.805
1395.1628,590.598
1395.6978,590.045
1396.2325,591.902
1396.7675,590.104
1397.3024,589.078
1397.8373,593.007
1398.3721,589.699
1398.907,590.189
1399.4419,591.472
1399.9768,593.441
1400.5117,591.742
1401.0465,593.19
1401.5814,591.952
1402.1163,591.241
1402.6512,593.811
1403.186,588.936
1403.7209,593.66
1404.2559,593.219
1404.7908,588.143
1405.3256,590.664
1405.8605,592.062
1406.3954,588.971
1406.9303,591.331
1407.4652,592.591
1408,592.313
1408.5349,595.013
1409.0698,587.499
1409.6047,591.517
1410.1395,589.878
1410.6744,591.762
1411.2094,591.506
1411.7443,587.178
1412.2791,589.673
1412.814,587.589
1413.3489,585.972
1413.8838,591.902
1414.4186,587.3
1414.9535,588.921
1415.4884,591.12
1416.0233,592.386
1416.5582,585.545
1417.093,594.434
1417.6279,590.623
1418.1628,590.04
1418.6978,588.826
1419.2325,591.007
1419.7675,592.928
1420.3024,591.377
1420.8373,588.715
1421.3721,588.407
1421.907,593.455
1422.4419,589.158
1422.9768,588.564
1423.5117,590.104
1424.0465,588
1424.5814,591.148
1425.1163,592.834
1425.6512,591.343
1426.186,593.513
1426.7209,589.986
1427.2559,590.054
1427.7908,591.612
1428.3256,592.326
1428.8605,588.54
1429.3954,588.324
1429.9303,588.638
1430.4652,590.216
1431,590.571
1431.5349,592.592
1432.0698,593.464
1432.6047,587.262
1433.1395,589.892
1433.6744,594.912
1434.2094,588.675
1434.7443,590.35
1435.2791,590.997
1435.814,589.062
1436.3489,589.477
1436.8838,590.353
1437.4187,584.544
1437.9535,589.859
1438.4884,589.63
1439.0233,590.45
1439.5582,590.837
1440.093,590.48
1440.6279,591.49
1441.1628,587.12
1441.6978,590.757
1442.2325,591.01
1442.7675,588.846
1443.3024,588.541
1443.8373,595.682
1444.3721,594.167
1444.907,589.928
1445.4419,587.482
1445.9768,589.61
1446.5117,592.516
1447.0465,591.431
1447.5814,594.452
1448.1163,591.567
1448.6512,591.026
1449.186,587.104
1449.7209,593.35
1450.2559,588.657
1450.7908,589.687
1451.3256,593.996
1451.8605,591.039
1452.3954,593.937
1452.9303,589.208
1453.4652,590.243
1454,593.677
1454.5349,590.552
1455.0698,588.272
1455.6047,589.376
1456.1395,590.923
1456.6744,588.533
1457.2094,589.965
1457.7443,594.377
1458.2791,592.863
1458.814,590.829
1459.3489,592.902
1459.8838,592.05
1460.4187,592.024
1460.9535,592.945
1461.4884,592.173
1462.0233,592.245
1462.5582,587.755
1463.093,591.23
1463.6279,593.174
1464.1628,590.205
1464.6978,587.325
1465.2325,589.848
1465.7675,590.779
1466.3024,588.866
1466.8373,591.245
1467.3721,592.254
1467.907,590.991
1468.4419,591.992
1468.9768,590.068
1469.5117,587.988
1470.0465,590.454
1470.5814,593.912
1471.1163,592.233
1471.6512,591.546
1472.186,589.549
1472.7209,593.337
1473.2559,589.195
1473.7908,591.143
1474.3256,592.345
1474.8605,590.684
1475.3954,589.755
1475.9303,590.44
1476.4652,587.044
1477,591.418
1477.5349,591.326
1478.0698,586.99
1478.6047,591.97
1479.1395,588.208
1479.6744,594.474
1480.2094,590.769
1480.7443,590.096
1481.2791,592.284
1481.814,590.585
1482.3489,591.138
1482.8838,590.846
1483.4187,588.084
1483.9535,590.369
1484.4884,590.6
1485.0233,591.718
1485.5582,589.511
1486.093,589.588
1486.6279,593.97
1487.1628,590.953
1487.6978,589.921
1488.2325,587.662
1488.7675,587.526
1489.3024,589.88
1489.8373,587.608
1490.3721,588.543
1490.907,588.56
1491.4419,588.4
1491.9768,589.029
1492.5117,589.565
1493.0465,590.242
1493.5814,588.998
1494.1163,590.678
1494.6512,590.926
1495.186,592.098
1495.7209,589.009
1496.2559,592.118
1496.7908,593.038
1497.3256,592.74
1497.8605,590.839
1498.3954,590.924
1498.9303,589.255
1499.4652,587.77
1500,588.447
