Date and Time:                Thu Dec 2 22:32:51.000 2021
Software Version:             4.31.30023.0
Temperature (C):              -50
Model:                        DU420_BVF
Data Type:                    Counts (Bg Corrected)
Acquisition Mode:             Accumulate
Trigger Mode:                 Internal
Exposure Time (secs):         0.09999
Accumulate Cycle Time (secs): 0.09999
Frequency (Hz):               10.001
Number of Accumulations:      1000
Readout Mode:                 Full Vertical Binning
Horizontal binning:           1
Extended Dynamic Range:       off
Horizontally flipped:         false
Vertical Shift Speed (usecs): 8.25
Pixel Readout Time (usecs):   30.303
Serial Number:                CCD-22942
Pre-Amplifier Gain:           1x
Spurious Noise Filter Mode:   No Filter
Photon counted:               false
Data Averaging Filter Mode:   No Filter
KY328i:
Serial Number:                
Wavelength (nm):              924.465
Grating Groove Density (l/mm):150.012
Grating Blaze:                500nm
Output Flipper Port:          Direct
Filter:                       6-785 LP



350,591.687
350.53488,588.449
351.06976,589.049
351.60464,591.301
352.13953,591.015
352.67441,595.898
353.20929,591.22
353.7442,588.205
354.27908,594.299
354.81396,590.237
355.34885,588.784
355.88373,592.69
356.41861,592.066
356.95349,590.029
357.48837,590.998
358.02325,589.051
358.55814,591.927
359.09302,592.006
359.6279,589.9
360.16278,589.961
360.69766,591.751
361.23257,591.984
361.76746,591.871
362.30234,590.797
362.83722,594.033
363.3721,589.26
363.90698,589.922
364.44186,588.976
364.97675,590.333
365.51163,590.719
366.04651,588.371
366.58139,586.794
367.11627,587.403
367.65115,590.334
368.18604,589.084
368.72095,585.979
369.25583,590.524
369.79071,594.11
370.32559,589.602
370.86047,591.644
371.39536,589.877
371.93024,587.553
372.46512,590.691
373,591.321
373.53488,587.769
374.06976,586.589
374.60464,594.428
375.13953,587.706
375.67441,591.373
376.20932,592.071
376.7442,588.228
377.27908,592.361
377.81396,593.434
378.34885,587.756
378.88373,588.907
379.41861,589.805
379.95349,590.004
380.48837,588.824
381.02325,592.983
381.55814,589.841
382.09302,588.37
382.6279,595.857
383.16278,589.66
383.69766,588.662
384.23257,590.93
384.76746,586.275
385.30234,589.865
385.83722,589.701
386.3721,589.19
386.90698,587.234
387.44186,590.761
387.97675,591.583
388.51163,589.155
389.04651,592.906
389.58139,587.186
390.11627,594.137
390.65115,590.562
391.18604,590.208
391.72095,592.645
392.25583,588.666
392.79071,589.551
393.32559,590.199
393.86047,587.009
394.39536,594.059
394.93024,594.332
395.46512,586.155
396,590.878
396.53488,591.481
397.06976,585.566
397.60464,586.482
398.13953,592.655
398.67441,591.826
399.20932,591.414
399.7442,592.172
400.27908,591.497
400.81396,589.752
401.34885,592.487
401.88373,589.277
402.41861,590.14
402.95349,593.056
403.48837,590.203
404.02325,591.821
404.55814,588.149
405.09302,585.781
405.6279,588.729
406.16278,593.014
406.69769,590.94
407.23257,592.124
407.76746,591.88
408.30234,592.403
408.83722,592.772
409.3721,591.787
409.90698,592.321
410.44186,590.5
410.97675,592.245
411.51163,588.944
412.04651,584.767
412.58139,590.336
413.11627,593.096
413.65115,591.945
414.18607,588.862
414.72095,592.19
415.25583,591.056
415.79071,588.692
416.32559,592.376
416.86047,596.777
417.39536,593.374
417.93024,589.124
418.46512,589.623
419,591.959
419.53488,593.552
420.06976,587.666
420.60464,593.505
421.13953,591.39
421.67441,591.63
422.20932,592.673
422.7442,592.224
423.27908,590.671
423.81396,585.232
424.34885,590.237
424.88373,593.08
425.41861,590.935
425.95349,591.446
426.48837,592.292
427.02325,590.299
427.55814,587.111
428.09302,591.028
428.6279,592.162
429.16278,591.958
429.69769,592.093
430.23257,592.758
430.76746,590.42
431.30234,593.523
431.83722,590.385
432.3721,591.65
432.90698,589.129
433.44186,588.22
433.97675,591.076
434.51163,591.453
435.04651,591.743
435.58139,594.414
436.11627,592.554
436.65115,593.997
437.18607,590.555
437.72095,589.06
438.25583,590.492
438.79071,595.649
439.32559,592.207
439.86047,591.329
440.39536,591.057
440.93024,589.359
441.46512,590.92
442,594.321
442.53488,591.105
443.06976,589.865
443.60464,592.78
444.13953,589.997
444.67444,591.22
445.20932,591.251
445.7442,590.453
446.27908,594.221
446.81396,589.33
447.34885,591.991
447.88373,595.044
448.41861,591.754
448.95349,590.785
449.48837,595.083
450.02325,595.293
450.55814,592.043
451.09302,589.888
451.6279,591.43
452.16278,589.45
452.69769,591.153
453.23257,593.12
453.76746,591.9
454.30234,588.856
454.83722,591.745
455.3721,593.58
455.90698,589.843
456.44186,592.819
456.97675,593.023
457.51163,594.47
458.04651,593.086
458.58139,590.968
459.11627,592.189
459.65115,592.252
460.18607,591.14
460.72095,594.115
461.25583,592.458
461.79071,592.224
462.32559,592.344
462.86047,590.976
463.39536,590.379
463.93024,590.576
464.46512,591.754
465,593.531
465.53488,590.329
466.06976,591.182
466.60464,591.813
467.13953,590.872
467.67444,593.336
468.20932,591.608
468.7442,591.077
469.27908,591.064
469.81396,592.082
470.34885,594.502
470.88373,595.334
471.41861,593.835
471.95349,591.819
472.48837,594.458
473.02325,595.471
473.55814,591.299
474.09302,589.918
474.6279,592.003
475.16281,590.307
475.69769,590.848
476.23257,592.288
476.76746,591.257
477.30234,593.162
477.83722,592.6
478.3721,594.903
478.90698,590.159
479.44186,589.324
479.97675,587.828
480.51163,590.124
481.04651,591.446
481.58139,589.284
482.11627,595.704
482.65118,595.331
483.18607,594.596
483.72095,588.402
484.25583,591.434
484.79071,596.27
485.32559,591.552
485.86047,591.174
486.39536,595.47
486.93024,595.927
487.46512,588.95
488,592.798
488.53488,593.721
489.06976,588.5
489.60464,588.643
490.13953,591.125
490.67444,592.764
491.20932,590.169
491.7442,594.148
492.27908,593.855
492.81396,593.054
493.34885,592.716
493.88373,592.171
494.41861,593.003
494.95349,595.927
495.48837,593.32
496.02325,593.092
496.55814,594.072
497.09302,591.481
497.6279,590.042
498.16281,592.194
498.69769,592.891
499.23257,590.929
499.76746,589.481
500.30234,590.222
500.83722,589.535
501.3721,594.174
501.90698,593.365
502.44186,592.885
502.97675,592.222
503.51163,592.499
504.04651,590.348
504.58139,592.143
505.11627,593.088
505.65118,594.349
506.18607,592.861
506.72095,592.283
507.25583,596.418
507.79071,593.514
508.32559,592.462
508.86047,594.318
509.39536,594.016
509.93024,597.032
510.46512,596.706
511,593.334
511.53488,592.61
512.06976,588.049
512.60468,592.328
513.13953,592.623
513.67444,591.856
514.20929,591.2
514.7442,596.748
515.27905,594.133
515.81396,594.568
516.34882,589.947
516.88373,593.034
517.41864,595.866
517.95349,594.229
518.4884,591.635
519.02325,596.735
519.55817,594.087
520.09302,595.143
520.62793,596.945
521.16278,597.694
521.69769,591.365
522.23254,596.471
522.76746,594.777
523.30231,590.421
523.83722,593.769
524.37207,593.115
524.90698,594.821
525.44189,597.934
525.97675,595.65
526.51166,598.159
527.04651,594.572
527.58142,599.763
528.11627,594.568
528.65118,594.715
529.18604,595.899
529.72095,595.29
530.2558,595.5
530.79071,590.305
531.32556,592.696
531.86047,599.454
532.39539,598.767
532.93024,599.717
533.46515,600.962
534,596.437
534.53491,594.7
535.06976,591.646
535.60468,597.314
536.13953,599.133
536.67444,594.956
537.20929,596.326
537.7442,596.186
538.27905,601.696
538.81396,602.976
539.34882,595.938
539.88373,594.567
540.41864,599.729
540.95349,600.909
541.4884,597.227
542.02325,599.67
542.55817,594.725
543.09302,594.354
543.62793,595.742
544.16278,595.167
544.69769,595.967
545.23254,596.908
545.76746,598.93
546.30231,600.267
546.83722,599.359
547.37213,601.447
547.90698,599.812
548.44189,598.475
548.97675,601.326
549.51166,600.12
550.04651,597.672
550.58142,599.015
551.11627,598.947
551.65118,594.316
552.18604,601.758
552.72095,600.578
553.2558,598.915
553.79071,600.78
554.32556,598.227
554.86047,599.064
555.39539,599.871
555.93024,600.555
556.46515,603.696
557,602.694
557.53491,603.283
558.06976,604.759
558.60468,607.716
559.13953,603.479
559.67444,600.828
560.20929,604.202
560.7442,605.906
561.27905,596.486
561.81396,599.759
562.34882,605.758
562.88373,597.756
563.41864,600.485
563.95349,599.496
564.4884,601.92
565.02325,603.615
565.55817,601.697
566.09302,597.005
566.62793,605.313
567.16278,603.114
567.69769,607.001
568.23254,601.654
568.76746,598.417
569.30231,605.014
569.83722,604.441
570.37213,605.335
570.90698,601.578
571.44189,606.743
571.97675,607.031
572.51166,603.606
573.04651,603.255
573.58142,605.727
574.11627,606.41
574.65118,607.937
575.18604,609.319
575.72095,606.583
576.2558,610.064
576.79071,608.296
577.32556,605.801
577.86047,607.045
578.39539,604.943
578.93024,610.485
579.46515,606.508
580,607.292
580.53491,614.127
581.06976,611.289
581.60468,609.826
582.13953,613.31
582.67444,608.808
583.20929,609.027
583.7442,616.604
584.27905,618.588
584.81396,612.415
585.34888,619.407
585.88373,618.9
586.41864,621.574
586.95349,618.351
587.4884,617.698
588.02325,617.937
588.55817,623.951
589.09302,626.462
589.62793,622.629
590.16278,627.901
590.69769,630.286
591.23254,630.828
591.76746,629.166
592.30231,625.06
592.83722,624.866
593.37213,627.859
593.90698,635.197
594.44189,636.124
594.97675,636.046
595.51166,639.385
596.04651,640.179
596.58142,637.454
597.11627,633.849
597.65118,636.392
598.18604,640.266
598.72095,630.344
599.2558,638.577
599.79071,645.346
600.32556,639.029
600.86047,642.219
601.39539,640.777
601.93024,642.568
602.46515,646.556
603,646.451
603.53491,639.302
604.06976,645.076
604.60468,646.291
605.13953,647.405
605.67444,650.111
606.20929,644.248
606.7442,644.395
607.27905,636.742
607.81396,639.534
608.34888,648.128
608.88373,649.78
609.41864,642.102
609.95349,640.384
610.4884,643.448
611.02325,648.979
611.55817,654.322
612.09302,649.67
612.62793,644.486
613.16278,639.551
613.69769,649.107
614.23254,651.453
614.76746,641.517
615.30231,640.832
615.83722,642.005
616.37213,639.283
616.90698,637.153
617.44189,646.411
617.97675,641.045
618.51166,639.077
619.04651,643.549
619.58142,647.04
620.11627,648.495
620.65118,646.252
621.18604,636.06
621.72095,636.404
622.2558,640.408
622.79071,642.032
623.32556,640.156
623.86047,638.777
624.39539,641.174
624.93024,638.852
625.46515,640.835
626,638.194
626.53491,642.794
627.06976,642.679
627.60468,633.642
628.13953,640.013
628.67444,633.994
629.20929,640.793
629.7442,639.771
630.27905,635.752
630.81396,636.354
631.34888,636.554
631.88373,639.873
632.41864,647.859
632.95349,634.416
633.4884,646.323
634.02325,639.945
634.55817,641.264
635.09302,640.19
635.62793,638.814
636.16278,643.175
636.69769,638.543
637.23254,634.379
637.76746,637.817
638.30231,636.741
638.83722,638.52
639.37213,638.943
639.90698,645.285
640.44189,637.689
640.97675,636.611
641.51166,636.821
642.04651,627.058
642.58142,635.184
643.11627,635.071
643.65118,631.701
644.18604,634.261
644.72095,633.754
645.2558,632.537
645.79071,632.925
646.32562,627.427
646.86047,632.991
647.39539,630.112
647.93024,625.86
648.46515,630.499
649,637.081
649.53491,638.728
650.06976,634.715
650.60468,641.58
651.13953,634.756
651.67444,640.416
652.20929,646.173
652.7442,637.973
653.27905,635.568
653.81396,632.041
654.34888,629.872
654.88373,635.498
655.41864,638.173
655.95349,634.809
656.4884,631.187
657.02325,636.967
657.55817,635.913
658.09302,632.457
658.62793,630.861
659.16278,626.92
659.69769,629.54
660.23254,634.613
660.76746,633.288
661.30231,634.516
661.83722,634.038
662.37213,631.004
662.90698,632.894
663.44189,635.703
663.97675,629.202
664.51166,629.056
665.04651,630.944
665.58142,628.301
666.11627,633.34
666.65118,634.256
667.18604,630.749
667.72095,626.153
668.2558,632.963
668.79071,634.094
669.32562,630.679
669.86047,628.392
670.39539,628.165
670.93024,631.309
671.46515,623.472
672,627.263
672.53491,632.629
673.06976,638.134
673.60468,631.488
674.13953,632.375
674.67444,622.532
675.20929,624.16
675.7442,628.289
676.27905,628.349
676.81396,629.682
677.34888,632.914
677.88373,629.836
678.41864,627.36
678.95349,623.815
679.4884,628.28
680.02325,624.672
680.55817,624.939
681.09302,627.084
681.62793,628.123
682.16278,625.583
682.69769,622.764
683.23254,629.359
683.76746,624.422
684.30237,621.727
684.83722,628.724
685.37213,629.529
685.90698,625.523
686.44189,621.304
686.97675,633.675
687.51166,637.372
688.04651,628.268
688.58142,626.324
689.11627,628.599
689.65118,630.28
690.18604,627.098
690.72095,631.826
691.2558,630.574
691.79071,626.588
692.32562,628.418
692.86047,628.1
693.39539,625.996
693.93024,638.032
694.46515,630.971
695,627.334
695.53491,630.941
696.06976,630.17
696.60468,625.017
697.13953,617.457
697.67444,622.081
698.20929,622.617
698.7442,626.735
699.27905,621.074
699.81396,620.605
700.34888,623.767
700.88373,627.406
701.41864,621.424
701.95349,619.968
702.4884,619.441
703.02325,619.041
703.55817,617.288
704.09302,620.068
704.62793,610.503
705.16278,617.531
705.69769,612.797
706.23254,616.897
706.76746,621.471
707.30237,616.967
707.83722,615.146
708.37213,618.083
708.90698,614.911
709.44189,613.885
709.97675,616.076
710.51166,612.976
711.04651,620.201
711.58142,615.593
712.11627,614.102
712.65118,615.406
713.18604,622.938
713.72095,625.061
714.2558,618.652
714.79071,619.591
715.32562,622.237
715.86047,633.934
716.39539,627.029
716.93024,628.749
717.46515,623.364
718,621.076
718.53491,625.008
719.06976,623.914
719.60468,624.77
720.13953,629.639
720.67444,617.682
721.20929,620.38
721.7442,619.931
722.27911,615.056
722.81396,622.4
723.34888,614.992
723.88373,617.74
724.41864,617.422
724.95349,614.034
725.4884,620.64
726.02325,615.605
726.55817,614.863
727.09302,618.09
727.62793,613.673
728.16278,620.818
728.69769,613.135
729.23254,609.721
729.76746,616.669
730.30237,616.986
730.83722,619.67
731.37213,618.82
731.90698,622.226
732.44189,620.876
732.97675,616.686
733.51166,612.592
734.04651,619.63
734.58142,617.7
735.11627,626.036
735.65118,626.533
736.18604,628.41
736.72095,621.293
737.2558,619.396
737.79071,622.276
738.32562,615.678
738.86047,619.665
739.39539,615.582
739.93024,614.996
740.46515,617.707
741,623.296
741.53491,609.861
742.06976,616.313
742.60468,619.227
743.13953,612.454
743.67444,606.949
744.20929,609.746
744.7442,613.074
745.27911,613.763
745.81396,614.94
746.34888,616.315
746.88373,617.652
747.41864,620.452
747.95349,620.26
748.4884,610.517
749.02325,610.31
749.55817,611.96
750.09302,612.265
750.62793,609.075
751.16278,611.305
751.69769,609.013
752.23254,610.894
752.76746,613.912
753.30237,614.925
753.83722,615.225
754.37213,612.402
754.90698,607.495
755.44189,612.309
755.97675,609.936
756.51166,608.495
757.04651,611.43
757.58142,607.653
758.11627,610.341
758.65118,606.001
759.18604,612.698
759.72095,612.809
760.25586,610.759
760.79071,610.189
761.32562,607.993
761.86047,613.186
762.39539,612.964
762.93024,609.989
763.46515,616.787
764,606.405
764.53491,612.856
765.06976,610.979
765.60468,610.699
766.13953,613.771
766.67444,614.491
767.20929,619.954
767.7442,619.55
768.27911,627.905
768.81396,634.741
769.34888,629.032
769.88373,624.017
770.41864,620.56
770.95349,611.328
771.4884,615.537
772.02325,618.78
772.55817,612.614
773.09302,613.2
773.62793,612.855
774.16278,606.167
774.69769,609.779
775.23254,610.657
775.76746,608.106
776.30237,608.067
776.83722,604.176
777.37213,605.337
777.90698,612.755
778.44189,604.485
778.97675,602.445
779.51166,602.905
780.04651,605.116
780.58142,608.267
781.11627,599.275
781.65118,605.111
782.18604,607.509
782.72095,602.486
783.25586,602.543
783.79071,603.009
784.32562,598.29
784.86047,597.246
785.39539,599.152
785.93024,604.383
786.46515,603.802
787,601.778
787.53491,603.784
788.06976,599.309
788.60468,601.656
789.13953,599.471
789.67444,603.817
790.20929,600.243
790.7442,609.27
791.27911,603.372
791.81396,605.938
792.34888,610.33
792.88373,603.166
793.41864,607.838
793.95349,610.256
794.4884,604.77
795.02325,608.723
795.55817,604.71
796.09302,605.783
796.62793,609.322
797.16278,600.962
797.69769,604.707
798.23254,602.749
798.76746,599.516
799.30237,601.706
799.83722,606.428
800.37213,607.13
800.90698,605.995
801.44189,606.354
801.97675,600.934
802.51166,608.576
803.04651,609.033
803.58142,601.938
804.11627,603.394
804.65118,606.585
805.18604,603.98
805.72095,605.416
806.25586,603.853
806.79071,603.538
807.32562,602.632
807.86047,600.711
808.39539,605.632
808.93024,600.797
809.46515,600.632
810,603.132
810.53491,605.274
811.06976,607.141
811.60468,603.401
812.13953,602.856
812.67444,606.938
813.20929,604.661
813.7442,603.885
814.27911,606.237
814.81396,600.522
815.34888,601.473
815.88373,603.607
816.41864,602.87
816.95349,601.571
817.4884,603.333
818.02325,602.853
818.55817,606.419
819.09302,602.735
819.62793,604.882
820.16278,608.371
820.69769,602.336
821.2326,604.606
821.76746,607.195
822.30237,607.085
822.83722,604.436
823.37213,602.768
823.90698,610.588
824.44189,613.277
824.97675,618.491
825.51166,619.025
826.04651,632.966
826.58142,719.026
827.11627,798.106
827.65118,806.425
828.18604,791.328
828.72095,755.434
829.25586,716.1
829.79071,679.483
830.32562,684.554
830.86047,672.286
831.39539,674.96
831.93024,682.459
832.46515,677.497
833,660.06
833.53491,652.155
834.06976,634.297
834.60468,625.884
835.13953,624.245
835.67444,619.556
836.20929,612.471
836.7442,604.368
837.27911,610.76
837.81396,618.115
838.34888,639.581
838.88373,638.403
839.41864,636.478
839.95349,617.281
840.4884,621.559
841.02325,618.425
841.55817,612.031
842.09302,602.575
842.62793,604.236
843.16278,601.188
843.69769,601.648
844.2326,605.09
844.76746,612.681
845.30237,614.222
845.83722,610.76
846.37213,601.921
846.90698,605.976
847.44189,600.896
847.97675,598.876
848.51166,598.678
849.04651,596.319
849.58142,598.244
850.11627,595.687
850.65118,594.096
851.18604,592.811
851.72095,593.526
852.25586,595.114
852.79071,598.51
853.32562,597.38
853.86047,594.738
854.39539,594.918
854.93024,600.638
855.46515,596.097
856,594.827
856.53491,599.142
857.06976,594.158
857.60468,594.832
858.13953,595.1
858.67444,594.985
859.20935,594.41
859.7442,593.568
860.27911,590.745
860.81396,594.065
861.34888,596.207
861.88373,594.95
862.41864,591.928
862.95349,592.658
863.4884,595.761
864.02325,595.517
864.55817,593.768
865.09302,594.409
865.62793,594.323
866.16278,595.14
866.69769,594.757
867.2326,593.018
867.76746,593.508
868.30237,593.388
868.83722,594.781
869.37213,596.483
869.90698,597.138
870.44189,591.884
870.97675,592.949
871.51166,597.04
872.04651,596.735
872.58142,595.852
873.11627,594.745
873.65118,595.462
874.18604,596.751
874.72095,594.29
875.25586,592.738
875.79071,594.824
876.32562,595.778
876.86047,594.642
877.39539,598.176
877.93024,594.787
878.46515,599.025
879,595.216
879.53491,595.308
880.06976,595.754
880.60468,598.51
881.13953,597.009
881.67444,596.293
882.20935,595.122
882.7442,599.025
883.27911,597.888
883.81396,601.477
884.34888,599.276
884.88373,614.653
885.41864,638.187
885.95349,676.867
886.4884,695.201
887.02325,688.182
887.55817,678.59
888.09302,655.92
888.62793,640.895
889.16278,628.212
889.69769,622.116
890.2326,613.583
890.76746,609.85
891.30237,603.006
891.83722,604.613
892.37213,606.18
892.90698,602.244
893.44189,596.49
893.97675,595.406
894.51166,599.496
895.04651,597.862
895.58142,596.394
896.11627,594.895
896.65118,601.672
897.18604,600.913
897.72095,597.528
898.25586,600.839
898.79071,607.426
899.32562,615.638
899.86047,612.84
900.39539,609.646
900.93024,608.958
901.46515,604.819
902,608.332
902.53491,603.71
903.06976,595.257
903.60468,597.755
904.13953,602.773
904.67444,598.514
905.20935,598.81
905.7442,597.304
906.27911,598.584
906.81396,597.456
907.34888,597.59
907.88373,600.351
908.41864,615.738
908.95349,622.913
909.4884,613.738
910.02325,610.516
910.55817,609.171
911.09302,604.411
911.62793,597.947
912.16278,595.604
912.69769,596.001
913.2326,592.582
913.76746,598.083
914.30237,593.842
914.83722,596.064
915.37213,594.559
915.90698,588.055
916.44189,591.79
916.97675,595.752
917.51166,592.121
918.04651,593.233
918.58142,597.863
919.11627,602.89
919.65118,607.062
920.1861,610.92
920.72095,616.974
921.25586,621.023
921.79071,614.274
922.32562,610.229
922.86047,607.953
923.39539,600.383
923.93024,596.726
924.46515,597.985
925,597.043
925.53491,599.396
926.06976,598.51
926.60468,595.408
927.13953,597.637
927.67444,592.994
928.20935,593.771
928.7442,589.724
929.27911,590.994
929.81396,593.122
930.34888,590.113
930.88373,590.622
931.41864,589.379
931.95349,593.617
932.4884,594.81
933.02325,590.443
933.55817,589.849
934.09302,591.085
934.62793,592.863
935.16278,593.078
935.69769,590.131
936.2326,590.797
936.76746,590.994
937.30237,593.634
937.83722,594.904
938.37213,592.234
938.90698,592.97
939.44189,591.845
939.97675,594.102
940.51166,597.424
941.04651,591.534
941.58142,596.93
942.11627,602.959
942.65118,597.715
943.1861,595.939
943.72095,596.69
944.25586,598.867
944.79071,596.673
945.32562,595.728
945.86047,596.801
946.39539,597.857
946.93024,593.555
947.46515,593.639
948,595.85
948.53491,596.903
949.06976,597.137
949.60468,597.857
950.13953,595.841
950.67444,593.645
951.20935,593.981
951.7442,596.019
952.27911,594.758
952.81396,595.391
953.34888,596.755
953.88373,597.305
954.41864,597.818
954.95349,597.605
955.4884,597.276
956.02325,598.266
956.55817,596.577
957.09302,596.913
957.62793,600.06
958.16284,601.531
958.69769,595.447
959.2326,595.833
959.76746,595.701
960.30237,592.57
960.83722,594.676
961.37213,593.062
961.90698,590.962
962.44189,585.748
962.97675,591.05
963.51166,591.24
964.04651,592.538
964.58142,597.193
965.11627,594.45
965.65118,594.977
966.1861,591.955
966.72095,595.45
967.25586,588.213
967.79071,589.396
968.32562,591.214
968.86047,594.652
969.39539,593.778
969.93024,592.059
970.46515,587.11
971,589.383
971.53491,593.435
972.06976,592.596
972.60468,594.835
973.13953,593.047
973.67444,593.766
974.20935,593.701
974.7442,594.405
975.27911,592.565
975.81396,594.013
976.34888,595.416
976.88373,597.899
977.41864,593.489
977.95349,591.89
978.4884,588.95
979.02325,594.314
979.55817,591.995
980.09302,592.018
980.62793,592.308
981.16284,589.112
981.69769,590.916
982.2326,592.66
982.76746,599.282
983.30237,602.62
983.83722,607.296
984.37213,613.409
984.90698,614.313
985.44189,611.204
985.97675,605.593
986.51166,599.045
987.04651,599.531
987.58142,592.408
988.11627,592.852
988.65118,592.828
989.1861,588.804
989.72095,595.199
990.25586,593.135
990.79071,589.314
991.32562,594.859
991.86047,591.479
992.39539,592.944
992.93024,593.071
993.46515,591.201
994,592.239
994.53491,594.641
995.06976,593.227
995.60468,602.044
996.13959,600.635
996.67444,602.727
997.20935,603.203
997.7442,605.175
998.27911,598.126
998.81396,594.015
999.34888,596.794
999.88373,594.636
1000.4186,595.682
1000.9535,592.856
1001.4884,591.729
1002.0233,592.637
1002.5582,587.103
1003.093,590.53
1003.6279,591.117
1004.1628,592.979
1004.6977,587.262
1005.2326,586.446
1005.7675,595.091
1006.3024,592.263
1006.8372,592.597
1007.3721,595.037
1007.907,595.761
1008.4419,591.139
1008.9767,592.263
1009.5117,593.716
1010.0465,592.387
1010.5814,589.088
1011.1163,590.807
1011.6512,591.251
1012.1861,592.668
1012.7209,592.17
1013.2559,589.593
1013.7907,594.91
1014.3256,590.3
1014.8605,591.511
1015.3954,595.247
1015.9302,592.987
1016.4651,587.983
1017,587.478
1017.5349,589.577
1018.0698,589.839
1018.6047,588.054
1019.1396,590.539
1019.6744,589.295
1020.2094,594.68
1020.7442,592.805
1021.2791,589.242
1021.814,589.558
1022.3489,591.19
1022.8837,590.151
1023.4186,593.792
1023.9535,592.532
1024.4884,595.995
1025.0233,587.386
1025.5581,590.907
1026.093,592.954
1026.6279,588.1
1027.1628,592.026
1027.6978,592.041
1028.2325,591.362
1028.7675,592.104
1029.3024,592.198
1029.8373,591.117
1030.3721,590.892
1030.907,587.507
1031.4419,587.92
1031.9768,588.846
1032.5116,588.795
1033.0465,592.241
1033.5814,589.135
1034.1163,590.414
1034.6512,592.026
1035.186,589.785
1035.7209,586.279
1036.2559,589.197
1036.7908,588.295
1037.3256,586.237
1037.8605,588.473
1038.3954,589.309
1038.9303,590.011
1039.4651,590.248
1040,589.111
1040.5349,590.615
1041.0698,592.076
1041.6046,593.879
1042.1395,592.895
1042.6744,594.435
1043.2094,586.68
1043.7443,588.211
1044.2791,595.642
1044.814,590.972
1045.3489,590.539
1045.8838,587.968
1046.4186,588.427
1046.9535,591.207
1047.4884,587.359
1048.0233,587.377
1048.5581,589.974
1049.093,591.644
1049.6279,588.622
1050.1628,591.756
1050.6978,590.168
1051.2325,591.393
1051.7675,590.013
1052.3024,591.534
1052.8373,589.402
1053.3721,589.557
1053.907,593.156
1054.4419,590.339
1054.9768,589.839
1055.5116,588.458
1056.0465,591.531
1056.5814,588.921
1057.1163,588.471
1057.6512,591.87
1058.186,587.545
1058.7209,588.666
1059.2559,589.837
1059.7908,591.272
1060.3256,592.458
1060.8605,590.693
1061.3954,590.719
1061.9303,589.608
1062.4651,590.815
1063,590.792
1063.5349,589.634
1064.0698,591.362
1064.6047,590.298
1065.1395,591.913
1065.6744,589.897
1066.2094,589.493
1066.7443,586.984
1067.2791,589.71
1067.814,591.582
1068.3489,589.547
1068.8838,589.608
1069.4186,587.643
1069.9535,587.013
1070.4884,589.519
1071.0233,592.08
1071.5581,591.83
1072.093,588.903
1072.6279,589.503
1073.1628,590.581
1073.6978,587.908
1074.2325,590.479
1074.7675,593.298
1075.3024,591.703
1075.8373,592.075
1076.3721,592.15
1076.907,587.54
1077.4419,590.396
1077.9768,592.558
1078.5116,591.006
1079.0465,589.177
1079.5814,590.753
1080.1163,589.108
1080.6512,588.104
1081.186,592.235
1081.7209,588.687
1082.2559,588.613
1082.7908,590.737
1083.3256,589.697
1083.8605,589.625
1084.3954,588.885
1084.9303,588.941
1085.4651,591.974
1086,591.926
1086.5349,589.319
1087.0698,589.663
1087.6047,592.831
1088.1395,589.566
1088.6744,589.404
1089.2094,592.277
1089.7443,589.014
1090.2791,588.339
1090.814,592.529
1091.3489,592.042
1091.8838,588.953
1092.4186,591.396
1092.9535,593.119
1093.4884,589.985
1094.0233,588.477
1094.5581,589.401
1095.093,590.003
1095.6279,591.362
1096.1628,590.085
1096.6978,589.812
1097.2325,591.27
1097.7675,589.21
1098.3024,589.69
1098.8373,589.731
1099.3721,589.791
1099.907,587.015
1100.4419,590.702
1100.9768,594.822
1101.5116,591.086
1102.0465,588.264
1102.5814,591.331
1103.1163,590.275
1103.6512,590.248
1104.186,587.726
1104.7209,587.533
1105.2559,588.599
1105.7908,592.116
1106.3256,593.29
1106.8605,588.468
1107.3954,590.392
1107.9303,592.704
1108.4651,593.999
1109,590.168
1109.5349,588.004
1110.0698,590.343
1110.6047,590.441
1111.1395,588.466
1111.6744,591.723
1112.2094,589.252
1112.7443,591.288
1113.2791,593.126
1113.814,595.844
1114.3489,592.047
1114.8838,587.674
1115.4186,588.739
1115.9535,589.326
1116.4884,592.108
1117.0233,588.724
1117.5581,591.007
1118.093,592.211
1118.6279,587.351
1119.1628,591.943
1119.6978,591.244
1120.2325,593.999
1120.7675,585.981
1121.3024,588.884
1121.8373,590.681
1122.3721,588.621
1122.907,589.582
1123.4419,589.33
1123.9768,590.443
1124.5116,589.2
1125.0465,591.934
1125.5814,589.507
1126.1163,588.201
1126.6512,590.569
1127.186,588.947
1127.7209,590.009
1128.2559,588.13
1128.7908,589.29
1129.3256,591.968
1129.8605,590.255
1130.3954,594.223
1130.9303,588.286
1131.4651,595.292
1132,591.538
1132.5349,590.082
1133.0698,589.324
1133.6047,590.004
1134.1395,590.902
1134.6744,592.021
1135.2094,588.935
1135.7443,593.053
1136.2791,595.297
1136.814,589.018
1137.3489,589.201
1137.8838,588.595
1138.4186,588.787
1138.9535,588.024
1139.4884,592.401
1140.0233,593.926
1140.5581,587.53
1141.093,589.919
1141.6279,588.463
1142.1628,586.533
1142.6978,588.759
1143.2325,589.433
1143.7675,590.998
1144.3024,589.982
1144.8373,586.364
1145.3721,587.499
1145.907,591.744
1146.4419,588.718
1146.9768,587.971
1147.5116,584.784
1148.0465,592.2
1148.5814,590.618
1149.1163,587.737
1149.6512,587.057
1150.186,589.561
1150.7209,591.664
1151.2559,589.317
1151.7908,594.332
1152.3256,591.381
1152.8605,586.524
1153.3954,587.106
1153.9303,591.078
1154.4651,593.146
1155,589.925
1155.5349,589.731
1156.0698,587.006
1156.6047,589.984
1157.1395,590.63
1157.6744,589.758
1158.2094,589.065
1158.7443,592.984
1159.2791,588.818
1159.814,588.287
1160.3489,591.196
1160.8838,588.977
1161.4186,585.986
1161.9535,589.267
1162.4884,593.371
1163.0233,592.241
1163.5582,587.694
1164.093,592.585
1164.6279,591.671
1165.1628,591.908
1165.6978,594.006
1166.2325,592.177
1166.7675,589.767
1167.3024,586.199
1167.8373,587.712
1168.3721,591.557
1168.907,590.462
1169.4419,593.038
1169.9768,591.339
1170.5116,588.44
1171.0465,593.396
1171.5814,589.277
1172.1163,587.891
1172.6512,590.281
1173.186,589.956
1173.7209,589.678
1174.2559,592.563
1174.7908,592.038
1175.3256,592.585
1175.8605,591.339
1176.3954,593.24
1176.9303,591.11
1177.4651,589.61
1178,593.81
1178.5349,592.058
1179.0698,585.114
1179.6047,589.04
1180.1395,588.816
1180.6744,589.806
1181.2094,591.781
1181.7443,589.675
1182.2791,592.584
1182.814,592.406
1183.3489,587.358
1183.8838,590.754
1184.4186,590.347
1184.9535,590.357
1185.4884,592.492
1186.0233,591.736
1186.5582,593.136
1187.093,589.654
1187.6279,587.926
1188.1628,593.376
1188.6978,591.244
1189.2325,588.922
1189.7675,588.98
1190.3024,589.206
1190.8373,587.81
1191.3721,587.975
1191.907,591.406
1192.4419,590.572
1192.9768,591.983
1193.5116,590.69
1194.0465,591.255
1194.5814,589.79
1195.1163,588.57
1195.6512,590.661
1196.186,590.31
1196.7209,591.42
1197.2559,592.235
1197.7908,591.16
1198.3256,584.999
1198.8605,592.171
1199.3954,591.591
1199.9303,589.262
1200.4651,589.624
1201,589.512
1201.5349,592.745
1202.0698,590.053
1202.6047,586.928
1203.1395,588.631
1203.6744,592.284
1204.2094,591.263
1204.7443,590.997
1205.2791,590.279
1205.814,589.07
1206.3489,593.755
1206.8838,591.467
1207.4186,589.858
1207.9535,589.425
1208.4884,591.5
1209.0233,589.073
1209.5582,590.257
1210.093,590.904
1210.6279,593.59
1211.1628,593.931
1211.6978,590.797
1212.2325,590.662
1212.7675,587.68
1213.3024,589.899
1213.8373,589.758
1214.3721,591.241
1214.907,588.271
1215.4419,591.578
1215.9768,592.876
1216.5116,589.213
1217.0465,588.009
1217.5814,593.791
1218.1163,588.971
1218.6512,587.651
1219.186,588.312
1219.7209,591.753
1220.2559,586.901
1220.7908,590.263
1221.3256,591.63
1221.8605,589.628
1222.3954,590.478
1222.9303,591.21
1223.4651,590.362
1224,590.357
1224.5349,591.983
1225.0698,589.797
1225.6047,590.2
1226.1395,584.451
1226.6744,588.289
1227.2094,590.349
1227.7443,591.213
1228.2791,590.009
1228.814,594.627
1229.3489,590.664
1229.8838,588.772
1230.4186,587.01
1230.9535,592.076
1231.4884,591.27
1232.0233,592.054
1232.5582,589.966
1233.093,590.623
1233.6279,586.738
1234.1628,591.328
1234.6978,587.518
1235.2325,592.446
1235.7675,589.923
1236.3024,591.373
1236.8373,592.553
1237.3721,592.913
1237.907,590.971
1238.4419,590.814
1238.9768,590.444
1239.5117,594.782
1240.0465,591.918
1240.5814,587.273
1241.1163,589.968
1241.6512,590.817
1242.186,590.38
1242.7209,587.399
1243.2559,590.272
1243.7908,592.389
1244.3256,592.158
1244.8605,587.311
1245.3954,594.05
1245.9303,595.309
1246.4651,586.335
1247,591.32
1247.5349,593.241
1248.0698,593.055
1248.6047,592.702
1249.1395,591.061
1249.6744,591.648
1250.2094,590.419
1250.7443,591.962
1251.2791,592.629
1251.814,592.05
1252.3489,588.434
1252.8838,589.137
1253.4186,589.114
1253.9535,591.392
1254.4884,585.547
1255.0233,591.077
1255.5582,591.405
1256.093,589.45
1256.6279,588.333
1257.1628,589.925
1257.6978,590.204
1258.2325,594.878
1258.7675,590.269
1259.3024,589.817
1259.8373,591.607
1260.3721,587.827
1260.907,587.733
1261.4419,591.475
1261.9768,587.475
1262.5117,586.607
1263.0465,587.636
1263.5814,591.444
1264.1163,590.631
1264.6512,591.664
1265.186,590.732
1265.7209,590.112
1266.2559,588.963
1266.7908,595.347
1267.3256,592.136
1267.8605,591.195
1268.3954,591.125
1268.9303,586.596
1269.4651,591.642
1270,594.012
1270.5349,591.8
1271.0698,589.444
1271.6047,589.529
1272.1395,591.093
1272.6744,588.053
1273.2094,590.556
1273.7443,590.17
1274.2791,588.917
1274.814,592.936
1275.3489,590.128
1275.8838,589.63
1276.4186,589.29
1276.9535,586.822
1277.4884,589.656
1278.0233,588.906
1278.5582,590.262
1279.093,590.066
1279.6279,592.183
1280.1628,588.002
1280.6978,588.618
1281.2325,589.209
1281.7675,591.922
1282.3024,589.997
1282.8373,588.704
1283.3721,592.628
1283.907,591.878
1284.4419,589.914
1284.9768,591.352
1285.5117,590.203
1286.0465,589.906
1286.5814,591.148
1287.1163,588.511
1287.6512,591.716
1288.186,588.995
1288.7209,589.154
1289.2559,590.224
1289.7908,591.822
1290.3256,588.569
1290.8605,589.221
1291.3954,589.754
1291.9303,590.256
1292.4651,590.974
1293,589.936
1293.5349,590.329
1294.0698,592.953
1294.6047,590.036
1295.1395,590.242
1295.6744,590.146
1296.2094,588.819
1296.7443,591.129
1297.2791,589.003
1297.814,590.881
1298.3489,593.858
1298.8838,587.36
1299.4186,587.055
1299.9535,590.469
1300.4884,591.694
1301.0233,591.51
1301.5582,592.888
1302.093,588.215
1302.6279,590.826
1303.1628,589.91
1303.6978,590.674
1304.2325,591.323
1304.7675,588.65
1305.3024,590.529
1305.8373,589.599
1306.3721,592.365
1306.907,590.363
1307.4419,585.244
1307.9768,590.83
1308.5117,586.302
1309.0465,589.235
1309.5814,590.966
1310.1163,591.43
1310.6512,588.366
1311.186,590.348
1311.7209,588.568
1312.2559,590.104
1312.7908,591.402
1313.3256,588.963
1313.8605,590.837
1314.3954,591.985
1314.9303,589.962
1315.4651,587.286
1316,591.899
1316.5349,589.544
1317.0698,591.874
1317.6047,585.854
1318.1395,590.034
1318.6744,589.338
1319.2094,589.991
1319.7443,590.702
1320.2791,593.765
1320.814,592.843
1321.3489,589.037
1321.8838,589.954
1322.4186,588.911
1322.9535,591.805
1323.4884,591.018
1324.0233,591.996
1324.5582,588.805
1325.093,586.806
1325.6279,587.79
1326.1628,594.112
1326.6978,592.128
1327.2325,586.099
1327.7675,590.776
1328.3024,590.917
1328.8373,588.316
1329.3721,587.176
1329.907,587.442
1330.4419,591.34
1330.9768,592.519
1331.5117,588.421
1332.0465,588.971
1332.5814,587.867
1333.1163,592.993
1333.6512,589.801
1334.186,589.184
1334.7209,592.723
1335.2559,592.927
1335.7908,587.451
1336.3256,590.074
1336.8605,590.386
1337.3954,588.651
1337.9303,589.622
1338.4652,589.937
1339,590.498
1339.5349,587.128
1340.0698,591.819
1340.6047,590.883
1341.1395,588.078
1341.6744,587.977
1342.2094,589.943
1342.7443,594.979
1343.2791,589.497
1343.814,589.558
1344.3489,589.809
1344.8838,585.574
1345.4186,590.759
1345.9535,589.701
1346.4884,593.551
1347.0233,591.973
1347.5582,586.17
1348.093,590.335
1348.6279,592.072
1349.1628,587.55
1349.6978,589.605
1350.2325,596.85
1350.7675,592.327
1351.3024,591.046
1351.8373,588.116
1352.3721,594.086
1352.907,589.447
1353.4419,589.019
1353.9768,589.138
1354.5117,588.232
1355.0465,587.66
1355.5814,591.56
1356.1163,590.604
1356.6512,592.217
1357.186,589.465
1357.7209,591.35
1358.2559,592.281
1358.7908,593.405
1359.3256,587.207
1359.8605,592.748
1360.3954,589.066
1360.9303,591.078
1361.4652,590.925
1362,591.191
1362.5349,591.781
1363.0698,589.537
1363.6047,591.254
1364.1395,591.812
1364.6744,588.702
1365.2094,591.671
1365.7443,597.088
1366.2791,590.768
1366.814,586.544
1367.3489,591.327
1367.8838,591.539
1368.4186,588.969
1368.9535,591.771
1369.4884,592.039
1370.0233,589.913
1370.5582,589.384
1371.093,595.299
1371.6279,592.143
1372.1628,587.93
1372.6978,588.444
1373.2325,592.06
1373.7675,588.583
1374.3024,588.928
1374.8373,590.065
1375.3721,590.741
1375.907,589.899
1376.4419,587.684
1376.9768,591.352
1377.5117,590.719
1378.0465,586.011
1378.5814,589.904
1379.1163,588.908
1379.6512,587.145
1380.186,591.579
1380.7209,592.804
1381.2559,590.425
1381.7908,590.604
1382.3256,591.849
1382.8605,588.046
1383.3954,588.885
1383.9303,590.57
1384.4652,587.226
1385,588.401
1385.5349,588.464
1386.0698,588.103
1386.6047,594.699
1387.1395,589.683
1387.6744,585.062
1388.2094,586.151
1388.7443,591.951
1389.2791,588.041
1389.814,592.589
1390.3489,589.293
1390.8838,587.205
1391.4186,590.602
1391.9535,587.542
1392.4884,591.185
1393.0233,589.684
1393.5582,589.137
1394.093,588.998
1394.6279,592.717
1395.1628,594.244
1395.6978,593.337
1396.2325,589.316
1396.7675,588.888
1397.3024,593.023
1397.8373,589.599
1398.3721,587.084
1398.907,590.97
1399.4419,592.359
1399.9768,590.429
1400.5117,591.137
1401.0465,586.254
1401.5814,587.858
1402.1163,587.22
1402.6512,591.986
1403.186,589.559
1403.7209,587.528
1404.2559,592.282
1404.7908,586.527
1405.3256,588.719
1405.8605,588.076
1406.3954,588.118
1406.9303,593.033
1407.4652,589.735
1408,589.883
1408.5349,589.127
1409.0698,589.986
1409.6047,588.197
1410.1395,589.428
1410.6744,590.234
1411.2094,589.073
1411.7443,587.313
1412.2791,590.127
1412.814,593.572
1413.3489,589.371
1413.8838,590.992
1414.4186,587.175
1414.9535,588.984
1415.4884,588.092
1416.0233,592.992
1416.5582,590.201
1417.093,592.404
1417.6279,587.925
1418.1628,590.075
1418.6978,591.428
1419.2325,591.083
1419.7675,587.891
1420.3024,589.521
1420.8373,591.604
1421.3721,590.749
1421.907,595.701
1422.4419,595.791
1422.9768,592.423
1423.5117,589.157
1424.0465,588.976
1424.5814,588.899
1425.1163,587.401
1425.6512,591.433
1426.186,584.905
1426.7209,587.875
1427.2559,588.86
1427.7908,592.185
1428.3256,585.702
1428.8605,589.741
1429.3954,592.594
1429.9303,589.99
1430.4652,590.178
1431,588.973
1431.5349,590.281
1432.0698,585.388
1432.6047,587.676
1433.1395,589.998
1433.6744,590.065
1434.2094,590.668
1434.7443,587.207
1435.2791,591.387
1435.814,591.289
1436.3489,591.212
1436.8838,588.599
1437.4187,589.352
1437.9535,590.998
1438.4884,588.931
1439.0233,590.152
1439.5582,593.188
1440.093,586.346
1440.6279,592.822
1441.1628,591.557
1441.6978,590.036
1442.2325,588.014
1442.7675,587.062
1443.3024,590.481
1443.8373,591.296
1444.3721,588.926
1444.907,593.954
1445.4419,590.486
1445.9768,591.082
1446.5117,591.315
1447.0465,592.559
1447.5814,589.403
1448.1163,588.546
1448.6512,588.165
1449.186,589.592
1449.7209,589.319
1450.2559,588.007
1450.7908,589.77
1451.3256,594.001
1451.8605,590.882
1452.3954,589.442
1452.9303,586.753
1453.4652,593.564
1454,589.479
1454.5349,586.662
1455.0698,587.277
1455.6047,589.19
1456.1395,589.417
1456.6744,590.09
1457.2094,590.975
1457.7443,587.044
1458.2791,591.731
1458.814,593.36
1459.3489,591.134
1459.8838,590.953
1460.4187,591.985
1460.9535,588.651
1461.4884,586.12
1462.0233,589.634
1462.5582,589.149
1463.093,587.647
1463.6279,592.422
1464.1628,589.159
1464.6978,586.79
1465.2325,590.188
1465.7675,592.952
1466.3024,589.013
1466.8373,586.611
1467.3721,593.76
1467.907,588.442
1468.4419,591.885
1468.9768,588.015
1469.5117,592.022
1470.0465,589.018
1470.5814,590.54
1471.1163,587.71
1471.6512,591.338
1472.186,586.743
1472.7209,590.233
1473.2559,590.808
1473.7908,592.438
1474.3256,590.76
1474.8605,589.165
1475.3954,590.972
1475.9303,590.247
1476.4652,589.908
1477,590.819
1477.5349,592.033
1478.0698,590.994
1478.6047,591.737
1479.1395,587.638
1479.6744,595.736
1480.2094,586.842
1480.7443,591.139
1481.2791,592.297
1481.814,587.924
1482.3489,587.93
1482.8838,589.049
1483.4187,590.635
1483.9535,590.992
1484.4884,592.878
1485.0233,586.744
1485.5582,589.243
1486.093,590.225
1486.6279,588.916
1487.1628,591.992
1487.6978,588.974
1488.2325,591.008
1488.7675,590.378
1489.3024,593.071
1489.8373,589.779
1490.3721,588.012
1490.907,589.704
1491.4419,589.494
1491.9768,589.15
1492.5117,587.576
1493.0465,588.102
1493.5814,590.137
1494.1163,588.267
1494.6512,588.801
1495.186,589.1
1495.7209,587.978
1496.2559,591.099
1496.7908,590.752
1497.3256,589.203
1497.8605,592.571
1498.3954,590.596
1498.9303,589.194
1499.4652,593.603
1500,593.011
