Date and Time:                Thu Dec 2 20:33:49.000 2021
Software Version:             4.31.30023.0
Temperature (C):              -50
Model:                        DU420_BVF
Data Type:                    Counts (Bg Corrected)
Acquisition Mode:             Accumulate
Trigger Mode:                 Internal
Exposure Time (secs):         0.09999
Accumulate Cycle Time (secs): 0.09999
Frequency (Hz):               10.001
Number of Accumulations:      1000
Readout Mode:                 Full Vertical Binning
Horizontal binning:           1
Extended Dynamic Range:       off
Horizontally flipped:         false
Vertical Shift Speed (usecs): 8.25
Pixel Readout Time (usecs):   30.303
Serial Number:                CCD-22942
Pre-Amplifier Gain:           1x
Spurious Noise Filter Mode:   No Filter
Photon counted:               false
Data Averaging Filter Mode:   No Filter
KY328i:
Serial Number:                
Wavelength (nm):              924.465
Grating Groove Density (l/mm):150.012
Grating Blaze:                500nm
Output Flipper Port:          Direct
Filter:                       6-785 LP



350,586.498
350.53488,592.137
351.06976,589.571
351.60464,592.444
352.13953,594.233
352.67441,589.762
353.20929,586.489
353.7442,591.058
354.27908,590.805
354.81396,591.61
355.34885,591.417
355.88373,588.404
356.41861,589.811
356.95349,594.099
357.48837,590.542
358.02325,590.104
358.55814,591.816
359.09302,593.458
359.6279,594.214
360.16278,593.118
360.69766,592.944
361.23257,593.205
361.76746,589.215
362.30234,590.927
362.83722,592.817
363.3721,588.723
363.90698,588.514
364.44186,590.39
364.97675,586.241
365.51163,588.688
366.04651,588.49
366.58139,590.487
367.11627,593.188
367.65115,594.523
368.18604,590.265
368.72095,592.452
369.25583,591.348
369.79071,589.601
370.32559,590.743
370.86047,591.583
371.39536,592.407
371.93024,588.287
372.46512,590.81
373,591.831
373.53488,588.536
374.06976,591.179
374.60464,585.794
375.13953,591.141
375.67441,594.173
376.20932,589.832
376.7442,590.093
377.27908,593.396
377.81396,586.467
378.34885,590.783
378.88373,584.816
379.41861,591.094
379.95349,595.36
380.48837,591.476
381.02325,588.782
381.55814,587.589
382.09302,590.545
382.6279,592.339
383.16278,591.582
383.69766,590.048
384.23257,591.862
384.76746,591.533
385.30234,590.235
385.83722,590.055
386.3721,589.737
386.90698,591.074
387.44186,587.74
387.97675,590.842
388.51163,590.647
389.04651,586.738
389.58139,596.603
390.11627,591.546
390.65115,592.157
391.18604,595.42
391.72095,591.297
392.25583,595.63
392.79071,594.983
393.32559,588.292
393.86047,592.006
394.39536,593.576
394.93024,590.082
395.46512,591.936
396,588.801
396.53488,588.197
397.06976,586.685
397.60464,590.505
398.13953,595.381
398.67441,590.196
399.20932,587.965
399.7442,590.509
400.27908,591.409
400.81396,589.615
401.34885,593.956
401.88373,592.357
402.41861,592.364
402.95349,591.29
403.48837,592.801
404.02325,593.018
404.55814,591.171
405.09302,591.815
405.6279,589.704
406.16278,589.457
406.69769,593.054
407.23257,590.411
407.76746,588.957
408.30234,590.774
408.83722,591.856
409.3721,590.698
409.90698,591.729
410.44186,593.525
410.97675,591.261
411.51163,587.447
412.04651,587.779
412.58139,590.548
413.11627,590.004
413.65115,588.209
414.18607,593.241
414.72095,591.187
415.25583,590.309
415.79071,592.104
416.32559,590.311
416.86047,588.969
417.39536,591.788
417.93024,593.993
418.46512,592.86
419,590.124
419.53488,588.463
420.06976,588.828
420.60464,590.081
421.13953,585.983
421.67441,590.865
422.20932,587.491
422.7442,590.861
423.27908,590.27
423.81396,591.335
424.34885,594.747
424.88373,592.364
425.41861,584.729
425.95349,588.298
426.48837,592.012
427.02325,588.672
427.55814,590.074
428.09302,586.913
428.6279,588.085
429.16278,590.512
429.69769,594.212
430.23257,592.814
430.76746,592.623
431.30234,591.284
431.83722,591.023
432.3721,587.488
432.90698,592.556
433.44186,593.506
433.97675,590.34
434.51163,587.96
435.04651,591.133
435.58139,595.892
436.11627,592.29
436.65115,588.176
437.18607,589.822
437.72095,590.1
438.25583,590.22
438.79071,589.868
439.32559,591.789
439.86047,592.9
440.39536,590.749
440.93024,590.586
441.46512,593.936
442,595.789
442.53488,590.858
443.06976,591.475
443.60464,593.242
444.13953,591.997
444.67444,589.585
445.20932,591.041
445.7442,590.515
446.27908,591.865
446.81396,590.652
447.34885,592.014
447.88373,594.507
448.41861,589.247
448.95349,589.884
449.48837,591.662
450.02325,591.963
450.55814,590.619
451.09302,589.816
451.6279,592.756
452.16278,595.288
452.69769,591.839
453.23257,591.029
453.76746,591.641
454.30234,591.552
454.83722,592.977
455.3721,593.568
455.90698,593.042
456.44186,589.108
456.97675,590.87
457.51163,590.493
458.04651,592.286
458.58139,591.076
459.11627,588.991
459.65115,591.074
460.18607,590.974
460.72095,592.377
461.25583,589.375
461.79071,589.571
462.32559,590.81
462.86047,592.777
463.39536,590.364
463.93024,590.697
464.46512,591.821
465,592.312
465.53488,588.183
466.06976,590.979
466.60464,594.972
467.13953,592.96
467.67444,591.417
468.20932,593.992
468.7442,588.965
469.27908,591.898
469.81396,589.94
470.34885,593.568
470.88373,594.607
471.41861,594.524
471.95349,592.674
472.48837,592.792
473.02325,592.346
473.55814,593.939
474.09302,594.262
474.6279,593.145
475.16281,591.418
475.69769,593.794
476.23257,590.323
476.76746,597.099
477.30234,590.363
477.83722,590.462
478.3721,592.654
478.90698,591.844
479.44186,590.143
479.97675,589.099
480.51163,590.967
481.04651,592.348
481.58139,591.805
482.11627,594.37
482.65118,591.216
483.18607,589.054
483.72095,593.301
484.25583,590.654
484.79071,588.768
485.32559,590.56
485.86047,593.555
486.39536,594.3
486.93024,590.393
487.46512,591.891
488,595.525
488.53488,589.719
489.06976,593.787
489.60464,596.172
490.13953,593.302
490.67444,593.566
491.20932,588.195
491.7442,594.414
492.27908,594.499
492.81396,589.017
493.34885,590.565
493.88373,594.67
494.41861,590.235
494.95349,592.101
495.48837,594.518
496.02325,590.098
496.55814,589.044
497.09302,591.37
497.6279,592.284
498.16281,590.959
498.69769,592.405
499.23257,593.94
499.76746,591.127
500.30234,592.41
500.83722,590.718
501.3721,594.297
501.90698,592.502
502.44186,589.984
502.97675,592.038
503.51163,593.651
504.04651,593.605
504.58139,594.489
505.11627,592.448
505.65118,595.215
506.18607,589.255
506.72095,593.267
507.25583,594.043
507.79071,592.067
508.32559,594.737
508.86047,591.172
509.39536,593.409
509.93024,593.141
510.46512,594.467
511,589.734
511.53488,591.338
512.06976,591.924
512.60468,592.07
513.13953,592.102
513.67444,594.413
514.20929,594.388
514.7442,592.986
515.27905,593.919
515.81396,595.015
516.34882,594.95
516.88373,592.739
517.41864,593.929
517.95349,596.175
518.4884,591.669
519.02325,590.622
519.55817,588.569
520.09302,592.558
520.62793,593.989
521.16278,594.46
521.69769,595.19
522.23254,591.72
522.76746,593.058
523.30231,590.527
523.83722,590.742
524.37207,595.017
524.90698,595.789
525.44189,592.555
525.97675,592.451
526.51166,595.57
527.04651,598.059
527.58142,593.225
528.11627,594.668
528.65118,593.462
529.18604,591.404
529.72095,590.707
530.2558,596.18
530.79071,594.666
531.32556,595.832
531.86047,597.349
532.39539,594.621
532.93024,595.65
533.46515,595.253
534,597.103
534.53491,599.495
535.06976,598.563
535.60468,597.236
536.13953,592.63
536.67444,592.104
537.20929,589.664
537.7442,600.049
538.27905,597.198
538.81396,597.459
539.34882,594.642
539.88373,600.314
540.41864,597.993
540.95349,593.967
541.4884,601.096
542.02325,602.479
542.55817,597.655
543.09302,601.041
543.62793,600.057
544.16278,599.813
544.69769,594.758
545.23254,599.408
545.76746,600.955
546.30231,601.76
546.83722,600.542
547.37213,599.151
547.90698,600.614
548.44189,606.834
548.97675,608.305
549.51166,604.392
550.04651,603.514
550.58142,605.552
551.11627,598.301
551.65118,602.412
552.18604,599.934
552.72095,606.294
553.2558,602.822
553.79071,601.469
554.32556,600.539
554.86047,604.988
555.39539,609.514
555.93024,611.924
556.46515,609.943
557,605.989
557.53491,601.125
558.06976,607.351
558.60468,605.118
559.13953,604.808
559.67444,606.348
560.20929,602.491
560.7442,611.383
561.27905,613.688
561.81396,610.914
562.34882,615.846
562.88373,612.147
563.41864,605.407
563.95349,608.894
564.4884,612.799
565.02325,611.431
565.55817,616.975
566.09302,613.646
566.62793,611.086
567.16278,614.78
567.69769,609.802
568.23254,614.822
568.76746,617.086
569.30231,620.579
569.83722,613.802
570.37213,617.863
570.90698,617.969
571.44189,615.325
571.97675,617.938
572.51166,620.333
573.04651,620.695
573.58142,622.003
574.11627,624.069
574.65118,617.247
575.18604,616.087
575.72095,625.602
576.2558,621.974
576.79071,618.474
577.32556,622.536
577.86047,619.672
578.39539,618.791
578.93024,622.043
579.46515,624.994
580,620.006
580.53491,622.712
581.06976,618.482
581.60468,623.214
582.13953,630.642
582.67444,625.166
583.20929,624.788
583.7442,623.392
584.27905,626.11
584.81396,627.737
585.34888,630.06
585.88373,622.456
586.41864,626.44
586.95349,625.72
587.4884,630.786
588.02325,631.579
588.55817,628.781
589.09302,627.005
589.62793,631.779
590.16278,632.65
590.69769,630.768
591.23254,623.312
591.76746,625.523
592.30231,627.1
592.83722,625.313
593.37213,621.27
593.90698,632.336
594.44189,632.485
594.97675,634.726
595.51166,637.504
596.04651,626.056
596.58142,624.872
597.11627,629.682
597.65118,622.836
598.18604,620.406
598.72095,628.05
599.2558,628.076
599.79071,630.671
600.32556,626.19
600.86047,620.215
601.39539,625.304
601.93024,629.673
602.46515,627.325
603,625.128
603.53491,627.49
604.06976,627.969
604.60468,621.472
605.13953,632.469
605.67444,629.644
606.20929,630.124
606.7442,629.428
607.27905,624.619
607.81396,630.753
608.34888,632.266
608.88373,619.41
609.41864,623.198
609.95349,629.598
610.4884,624.869
611.02325,632.602
611.55817,636.046
612.09302,632.786
612.62793,633.265
613.16278,626.946
613.69769,629.406
614.23254,627.3
614.76746,628.507
615.30231,625.389
615.83722,622.518
616.37213,628.329
616.90698,630.135
617.44189,623.291
617.97675,624.093
618.51166,630.801
619.04651,631.958
619.58142,631.659
620.11627,627.207
620.65118,631.823
621.18604,631.402
621.72095,630.043
622.2558,633.848
622.79071,631.131
623.32556,635.951
623.86047,634.434
624.39539,628.898
624.93024,630.248
625.46515,619.796
626,624.017
626.53491,631.249
627.06976,630.368
627.60468,626.367
628.13953,625.878
628.67444,635.772
629.20929,623.898
629.7442,637.523
630.27905,627.478
630.81396,626.442
631.34888,620.65
631.88373,630.977
632.41864,629.637
632.95349,623.007
633.4884,630.475
634.02325,630.133
634.55817,622.937
635.09302,633.407
635.62793,633.445
636.16278,632.903
636.69769,630.441
637.23254,627.255
637.76746,627.791
638.30231,625.865
638.83722,627.331
639.37213,626.063
639.90698,625.083
640.44189,632.695
640.97675,630.382
641.51166,630.839
642.04651,626.34
642.58142,625.998
643.11627,626.333
643.65118,621.501
644.18604,627.741
644.72095,622.976
645.2558,623.719
645.79071,632.713
646.32562,629.664
646.86047,620.782
647.39539,622.147
647.93024,627.621
648.46515,632.912
649,626.186
649.53491,627.257
650.06976,630.132
650.60468,634.928
651.13953,632.237
651.67444,628.567
652.20929,628.278
652.7442,630.55
653.27905,633.359
653.81396,633.647
654.34888,629.377
654.88373,627.673
655.41864,630.596
655.95349,626.922
656.4884,627.941
657.02325,622.276
657.55817,621.342
658.09302,627.734
658.62793,630.195
659.16278,629.299
659.69769,623.654
660.23254,627.071
660.76746,625.203
661.30231,623.259
661.83722,626.373
662.37213,627.698
662.90698,626.131
663.44189,627.216
663.97675,625.1
664.51166,623.11
665.04651,621.91
665.58142,621.172
666.11627,627.811
666.65118,624.193
667.18604,626.233
667.72095,627.74
668.2558,627.677
668.79071,623.34
669.32562,624.242
669.86047,627.86
670.39539,625.703
670.93024,621.947
671.46515,624.027
672,629.003
672.53491,628.431
673.06976,622.805
673.60468,627.222
674.13953,628.898
674.67444,627.356
675.20929,624.085
675.7442,622.671
676.27905,622.419
676.81396,628.131
677.34888,626.233
677.88373,627.946
678.41864,627.232
678.95349,622.894
679.4884,626.393
680.02325,623.417
680.55817,628.018
681.09302,627.048
681.62793,627.133
682.16278,624.398
682.69769,616.233
683.23254,622.596
683.76746,624.213
684.30237,622.53
684.83722,612.506
685.37213,614.76
685.90698,624.557
686.44189,629.102
686.97675,629.467
687.51166,626.672
688.04651,622.282
688.58142,625.612
689.11627,623.368
689.65118,622.448
690.18604,625.129
690.72095,625.251
691.2558,623.438
691.79071,621.248
692.32562,627.282
692.86047,630.656
693.39539,627.211
693.93024,624.6
694.46515,628.511
695,625.732
695.53491,625.942
696.06976,622.256
696.60468,618.071
697.13953,625.974
697.67444,615.75
698.20929,623.522
698.7442,619.814
699.27905,620.819
699.81396,623.172
700.34888,611.936
700.88373,616.704
701.41864,618.909
701.95349,620.561
702.4884,619.356
703.02325,618.559
703.55817,615.313
704.09302,612.431
704.62793,621.506
705.16278,619.696
705.69769,612.458
706.23254,612.677
706.76746,616.8
707.30237,616.925
707.83722,616.311
708.37213,619.662
708.90698,613.314
709.44189,611.323
709.97675,616.169
710.51166,615.723
711.04651,612.101
711.58142,616.26
712.11627,619.082
712.65118,613.851
713.18604,611.754
713.72095,622.588
714.2558,620.067
714.79071,621.059
715.32562,625.351
715.86047,616.561
716.39539,622.84
716.93024,625.616
717.46515,625.24
718,618.643
718.53491,623.211
719.06976,621.142
719.60468,625.293
720.13953,626.02
720.67444,615.305
721.20929,616.205
721.7442,616.527
722.27911,614.604
722.81396,622.28
723.34888,615.609
723.88373,615.304
724.41864,613.42
724.95349,612.062
725.4884,613.995
726.02325,613.706
726.55817,615.901
727.09302,611.285
727.62793,615.531
728.16278,615.107
728.69769,614.152
729.23254,611.436
729.76746,619.794
730.30237,609.425
730.83722,617.201
731.37213,613.826
731.90698,618.278
732.44189,620.593
732.97675,615.094
733.51166,618.021
734.04651,620.655
734.58142,617.024
735.11627,621.251
735.65118,616.829
736.18604,617.805
736.72095,617.48
737.2558,620.557
737.79071,619.943
738.32562,623.361
738.86047,624.604
739.39539,617.731
739.93024,613.947
740.46515,615.547
741,615.157
741.53491,618.012
742.06976,612.376
742.60468,610.664
743.13953,612.482
743.67444,619.659
744.20929,625.457
744.7442,622.689
745.27911,618.453
745.81396,619.371
746.34888,614.948
746.88373,610.052
747.41864,613.777
747.95349,618.18
748.4884,612.615
749.02325,611.36
749.55817,610.116
750.09302,610.764
750.62793,613.797
751.16278,613.328
751.69769,610.777
752.23254,612.786
752.76746,610.56
753.30237,608.795
753.83722,614.372
754.37213,611.413
754.90698,607.651
755.44189,607.351
755.97675,610.074
756.51166,608.655
757.04651,608.175
757.58142,605.211
758.11627,606.084
758.65118,609.997
759.18604,610.588
759.72095,614.621
760.25586,610.481
760.79071,609.292
761.32562,603.558
761.86047,608.972
762.39539,613.129
762.93024,608.159
763.46515,609.026
764,606.512
764.53491,616.473
765.06976,608.75
765.60468,609.484
766.13953,609.781
766.67444,612.912
767.20929,617.189
767.7442,627.511
768.27911,634.075
768.81396,632.288
769.34888,621.504
769.88373,626.638
770.41864,614.074
770.95349,613.726
771.4884,614.484
772.02325,608.393
772.55817,604.071
773.09302,607.97
773.62793,606.225
774.16278,605.088
774.69769,605.257
775.23254,603.298
775.76746,609.315
776.30237,606.742
776.83722,600.067
777.37213,607.767
777.90698,604.038
778.44189,602.209
778.97675,603.7
779.51166,600.812
780.04651,601.316
780.58142,606.962
781.11627,609.103
781.65118,601.619
782.18604,601.353
782.72095,601.569
783.25586,604.448
783.79071,607.553
784.32562,601.807
784.86047,598.65
785.39539,602.829
785.93024,605.913
786.46515,601.451
787,605.233
787.53491,610.342
788.06976,598.251
788.60468,600.408
789.13953,601.319
789.67444,600.941
790.20929,600.467
790.7442,604.979
791.27911,605.234
791.81396,602.893
792.34888,607.02
792.88373,615.179
793.41864,608.516
793.95349,607.651
794.4884,609.228
795.02325,608.52
795.55817,601.392
796.09302,605.166
796.62793,604.48
797.16278,608.727
797.69769,604.114
798.23254,600.571
798.76746,604.948
799.30237,601.721
799.83722,606.809
800.37213,602.638
800.90698,600.934
801.44189,613.223
801.97675,605.862
802.51166,606.341
803.04651,608.011
803.58142,610.719
804.11627,609.09
804.65118,611.343
805.18604,608.287
805.72095,603.674
806.25586,605.889
806.79071,604.927
807.32562,601.57
807.86047,604.69
808.39539,597.65
808.93024,597.912
809.46515,602.315
810,606.259
810.53491,603.294
811.06976,600.805
811.60468,604.63
812.13953,599.151
812.67444,607.786
813.20929,608.885
813.7442,602.541
814.27911,601.388
814.81396,605.671
815.34888,606.798
815.88373,604.199
816.41864,610.439
816.95349,608.028
817.4884,601.311
818.02325,603.574
818.55817,598.724
819.09302,606.196
819.62793,606.206
820.16278,602.708
820.69769,608.418
821.2326,605.036
821.76746,604.63
822.30237,601.97
822.83722,608.525
823.37213,608.286
823.90698,613.543
824.44189,615.547
824.97675,623.236
825.51166,626.667
826.04651,648.09
826.58142,734.744
827.11627,815.445
827.65118,818.503
828.18604,783.52
828.72095,749.322
829.25586,723.809
829.79071,693.266
830.32562,673.084
830.86047,672.621
831.39539,692.238
831.93024,688.977
832.46515,676.061
833,661.495
833.53491,648.852
834.06976,635.002
834.60468,629.469
835.13953,617.174
835.67444,608.818
836.20929,608.56
836.7442,610.39
837.27911,609.619
837.81396,620.956
838.34888,633.6
838.88373,637.846
839.41864,630.664
839.95349,632.648
840.4884,627.698
841.02325,615.464
841.55817,609.26
842.09302,609.694
842.62793,603.401
843.16278,607.836
843.69769,605.728
844.2326,605.809
844.76746,612.746
845.30237,610.109
845.83722,611.006
846.37213,607.604
846.90698,604.079
847.44189,599.97
847.97675,599.472
848.51166,600.46
849.04651,596.512
849.58142,597.955
850.11627,591.667
850.65118,596.279
851.18604,594.683
851.72095,598.927
852.25586,595.388
852.79071,592.023
853.32562,593.014
853.86047,597.193
854.39539,596.788
854.93024,595.886
855.46515,597.611
856,598.499
856.53491,597.427
857.06976,593.027
857.60468,595.931
858.13953,593.841
858.67444,595.444
859.20935,596.821
859.7442,598.141
860.27911,594.321
860.81396,593.145
861.34888,593.301
861.88373,595.897
862.41864,594.438
862.95349,594.905
863.4884,597.93
864.02325,593.089
864.55817,595.084
865.09302,597.394
865.62793,593.186
866.16278,593.384
866.69769,596.453
867.2326,596.168
867.76746,595.367
868.30237,594.851
868.83722,600.676
869.37213,596.153
869.90698,595.953
870.44189,597.137
870.97675,594.581
871.51166,594.744
872.04651,594.272
872.58142,594.562
873.11627,595.453
873.65118,594.101
874.18604,592.424
874.72095,592.718
875.25586,594.431
875.79071,595.159
876.32562,598.916
876.86047,596.783
877.39539,596.837
877.93024,599.994
878.46515,596.206
879,599.699
879.53491,597.372
880.06976,598.16
880.60468,597.761
881.13953,599.637
881.67444,596.261
882.20935,596.673
882.7442,603.53
883.27911,599.412
883.81396,602.321
884.34888,603.812
884.88373,614.826
885.41864,645.169
885.95349,689.263
886.4884,695.481
887.02325,689.544
887.55817,671.151
888.09302,647.66
888.62793,637.033
889.16278,626.601
889.69769,624.762
890.2326,612.277
890.76746,605.406
891.30237,605.819
891.83722,605.821
892.37213,604.759
892.90698,601.723
893.44189,598.099
893.97675,599.535
894.51166,596.464
895.04651,598.571
895.58142,597.467
896.11627,596.835
896.65118,598.057
897.18604,600.144
897.72095,600.474
898.25586,603.88
898.79071,609.5
899.32562,613.107
899.86047,616.287
900.39539,609.797
900.93024,607.666
901.46515,604.223
902,605.584
902.53491,604.021
903.06976,602.864
903.60468,600.329
904.13953,596.351
904.67444,593.959
905.20935,596.779
905.7442,594.235
906.27911,593.049
906.81396,594.977
907.34888,594.984
907.88373,600.886
908.41864,614.279
908.95349,622.049
909.4884,617.595
910.02325,604.241
910.55817,605.444
911.09302,601.757
911.62793,600.956
912.16278,596.623
912.69769,592.349
913.2326,596.91
913.76746,596.1
914.30237,590.813
914.83722,592.844
915.37213,591.03
915.90698,590.589
916.44189,594.906
916.97675,593.3
917.51166,594.655
918.04651,594.438
918.58142,597.309
919.11627,601.007
919.65118,607.942
920.1861,614.517
920.72095,618.099
921.25586,618.294
921.79071,608.12
922.32562,602.707
922.86047,603.174
923.39539,598.519
923.93024,599.754
924.46515,601.395
925,593.572
925.53491,592.997
926.06976,595.252
926.60468,594.836
927.13953,591.316
927.67444,593.009
928.20935,594.26
928.7442,594.157
929.27911,590.356
929.81396,593.534
930.34888,593.419
930.88373,592.102
931.41864,592.96
931.95349,594.334
932.4884,595.626
933.02325,592.416
933.55817,593.423
934.09302,596.043
934.62793,595.102
935.16278,589.795
935.69769,593.169
936.2326,591.676
936.76746,593.179
937.30237,595.14
937.83722,588.514
938.37213,590.031
938.90698,596.014
939.44189,592.428
939.97675,590.778
940.51166,595.082
941.04651,595.089
941.58142,594.715
942.11627,594.118
942.65118,598.118
943.1861,597.919
943.72095,598.953
944.25586,598.986
944.79071,597.555
945.32562,599.116
945.86047,595.394
946.39539,598.578
946.93024,598.423
947.46515,592.004
948,597.136
948.53491,595.533
949.06976,592.164
949.60468,597.06
950.13953,598.977
950.67444,597.866
951.20935,596.592
951.7442,596.689
952.27911,595.721
952.81396,595.122
953.34888,600.32
953.88373,595.956
954.41864,597.776
954.95349,599.295
955.4884,596.089
956.02325,601.214
956.55817,600.331
957.09302,597.8
957.62793,599.816
958.16284,595.815
958.69769,596.624
959.2326,597.047
959.76746,594.552
960.30237,595.274
960.83722,592.32
961.37213,595.262
961.90698,594.502
962.44189,591.407
962.97675,591.752
963.51166,590.465
964.04651,592.507
964.58142,595.276
965.11627,594.036
965.65118,594.943
966.1861,592.938
966.72095,595.07
967.25586,589.852
967.79071,592.2
968.32562,593.006
968.86047,595.133
969.39539,592.732
969.93024,592.758
970.46515,594.983
971,594.952
971.53491,592.758
972.06976,592.313
972.60468,593.997
973.13953,592.774
973.67444,591.454
974.20935,592.129
974.7442,593.282
975.27911,592.141
975.81396,593.428
976.34888,592.011
976.88373,594.599
977.41864,593.805
977.95349,592.513
978.4884,597.559
979.02325,595.298
979.55817,591.142
980.09302,594.347
980.62793,595.192
981.16284,592.993
981.69769,592.23
982.2326,597.837
982.76746,595.892
983.30237,601.078
983.83722,611.251
984.37213,613.62
984.90698,609.953
985.44189,601.839
985.97675,601.172
986.51166,602.402
987.04651,598.372
987.58142,594.484
988.11627,591.563
988.65118,594.688
989.1861,594.682
989.72095,592.475
990.25586,593.297
990.79071,589.914
991.32562,594.597
991.86047,590.6
992.39539,592.883
992.93024,593.196
993.46515,596.345
994,594.917
994.53491,591.117
995.06976,595.529
995.60468,595.849
996.13959,598.919
996.67444,599.94
997.20935,599.608
997.7442,602.154
998.27911,596.916
998.81396,598.622
999.34888,596.195
999.88373,600.02
1000.4186,596.775
1000.9535,592.803
1001.4884,594.009
1002.0233,591.721
1002.5582,593.918
1003.093,590.559
1003.6279,594.227
1004.1628,593.599
1004.6977,589.208
1005.2326,589.01
1005.7675,591.599
1006.3024,591.747
1006.8372,592.732
1007.3721,593.119
1007.907,593.979
1008.4419,591.485
1008.9767,592.878
1009.5117,591.237
1010.0465,585.308
1010.5814,590.936
1011.1163,594.025
1011.6512,592.917
1012.1861,592.101
1012.7209,592.876
1013.2559,592.116
1013.7907,592.041
1014.3256,590.576
1014.8605,591.951
1015.3954,597.595
1015.9302,592.062
1016.4651,590.032
1017,589.02
1017.5349,590.295
1018.0698,589.358
1018.6047,591.109
1019.1396,591.665
1019.6744,594.512
1020.2094,592.065
1020.7442,592.364
1021.2791,594.86
1021.814,591.494
1022.3489,587.876
1022.8837,590.6
1023.4186,592.823
1023.9535,594.723
1024.4884,588.494
1025.0233,588.346
1025.5581,591.553
1026.093,595.1
1026.6279,588.156
1027.1628,590.913
1027.6978,594.015
1028.2325,589.899
1028.7675,589.513
1029.3024,595.032
1029.8373,593.108
1030.3721,593.092
1030.907,586.886
1031.4419,592.477
1031.9768,593.307
1032.5116,592.537
1033.0465,590.038
1033.5814,591.044
1034.1163,591.337
1034.6512,592.973
1035.186,591.076
1035.7209,591.997
1036.2559,590.461
1036.7908,589.73
1037.3256,593.21
1037.8605,589.391
1038.3954,588.236
1038.9303,588.875
1039.4651,590.693
1040,594.128
1040.5349,592.159
1041.0698,592.178
1041.6046,590.811
1042.1395,589.279
1042.6744,586.396
1043.2094,591.228
1043.7443,589.909
1044.2791,587.845
1044.814,588.037
1045.3489,586.984
1045.8838,589.206
1046.4186,592.709
1046.9535,588.652
1047.4884,591.547
1048.0233,590.059
1048.5581,589.714
1049.093,591.047
1049.6279,592.735
1050.1628,590.629
1050.6978,588.029
1051.2325,588.232
1051.7675,588.101
1052.3024,591.135
1052.8373,591.659
1053.3721,588.763
1053.907,589.551
1054.4419,585.565
1054.9768,593.845
1055.5116,590.08
1056.0465,586.895
1056.5814,592.102
1057.1163,593.949
1057.6512,591.568
1058.186,588.622
1058.7209,588.231
1059.2559,591.109
1059.7908,594.791
1060.3256,594.009
1060.8605,591.26
1061.3954,591.041
1061.9303,590.264
1062.4651,590.411
1063,592.351
1063.5349,590.421
1064.0698,593.883
1064.6047,592.822
1065.1395,589.849
1065.6744,589.164
1066.2094,589.883
1066.7443,594.252
1067.2791,590.41
1067.814,586.662
1068.3489,591.191
1068.8838,590.927
1069.4186,589.262
1069.9535,591.504
1070.4884,591.698
1071.0233,589.947
1071.5581,591.602
1072.093,589.987
1072.6279,590.178
1073.1628,590.863
1073.6978,589.232
1074.2325,589.419
1074.7675,590.41
1075.3024,590.112
1075.8373,590.422
1076.3721,590.821
1076.907,592.248
1077.4419,589.265
1077.9768,590.578
1078.5116,589.681
1079.0465,589.532
1079.5814,591.391
1080.1163,592.474
1080.6512,591.161
1081.186,592.23
1081.7209,593.256
1082.2559,593.609
1082.7908,593.52
1083.3256,592.974
1083.8605,591.945
1084.3954,590.183
1084.9303,589.778
1085.4651,590.549
1086,589.528
1086.5349,589.681
1087.0698,591.706
1087.6047,590.542
1088.1395,592.472
1088.6744,594.648
1089.2094,588.435
1089.7443,589.129
1090.2791,591.464
1090.814,593.062
1091.3489,590.879
1091.8838,589.642
1092.4186,590.865
1092.9535,592.552
1093.4884,588.594
1094.0233,588.944
1094.5581,589.85
1095.093,592.42
1095.6279,591.102
1096.1628,589.84
1096.6978,590.91
1097.2325,591.633
1097.7675,589.454
1098.3024,589.724
1098.8373,589.731
1099.3721,589.122
1099.907,589.216
1100.4419,591.818
1100.9768,592.067
1101.5116,591.851
1102.0465,588.49
1102.5814,590.852
1103.1163,589.68
1103.6512,589.82
1104.186,588.014
1104.7209,586.703
1105.2559,589.483
1105.7908,588.811
1106.3256,589.025
1106.8605,590.989
1107.3954,591.751
1107.9303,592.205
1108.4651,590.116
1109,590.808
1109.5349,590.168
1110.0698,589.839
1110.6047,590.298
1111.1395,592.042
1111.6744,588.812
1112.2094,588.154
1112.7443,590.815
1113.2791,590.128
1113.814,589.234
1114.3489,590.623
1114.8838,590.109
1115.4186,588.446
1115.9535,592.511
1116.4884,591.88
1117.0233,589.065
1117.5581,591.412
1118.093,590.39
1118.6279,589.93
1119.1628,595.967
1119.6978,592.621
1120.2325,589.326
1120.7675,593.272
1121.3024,595.654
1121.8373,593.416
1122.3721,592.187
1122.907,593.207
1123.4419,590.623
1123.9768,592.645
1124.5116,589.322
1125.0465,591.357
1125.5814,592.153
1126.1163,591.939
1126.6512,592.121
1127.186,590.452
1127.7209,589.598
1128.2559,592.838
1128.7908,588.809
1129.3256,592.272
1129.8605,591.161
1130.3954,591.093
1130.9303,589.075
1131.4651,586.863
1132,592.97
1132.5349,590.226
1133.0698,590.681
1133.6047,589.962
1134.1395,587.575
1134.6744,590.997
1135.2094,592.169
1135.7443,593.301
1136.2791,592.101
1136.814,592.763
1137.3489,592.338
1137.8838,589.319
1138.4186,589.836
1138.9535,591.995
1139.4884,590.854
1140.0233,589.136
1140.5581,591.263
1141.093,591.868
1141.6279,590.743
1142.1628,589.531
1142.6978,586.895
1143.2325,587.041
1143.7675,589.658
1144.3024,590.596
1144.8373,591.379
1145.3721,593.567
1145.907,591.922
1146.4419,593.837
1146.9768,593.679
1147.5116,591.294
1148.0465,589.154
1148.5814,589.69
1149.1163,589.384
1149.6512,591.987
1150.186,590.507
1150.7209,586.598
1151.2559,587.653
1151.7908,592.576
1152.3256,590.459
1152.8605,585.692
1153.3954,590.429
1153.9303,591.181
1154.4651,591.072
1155,590.174
1155.5349,589.633
1156.0698,589.27
1156.6047,590.256
1157.1395,593.634
1157.6744,591.605
1158.2094,589.945
1158.7443,589.981
1159.2791,593.957
1159.814,592.098
1160.3489,593.09
1160.8838,591.023
1161.4186,587.842
1161.9535,589.623
1162.4884,589.49
1163.0233,589.956
1163.5582,587.269
1164.093,588.918
1164.6279,590.013
1165.1628,590.693
1165.6978,589.543
1166.2325,590.518
1166.7675,592.547
1167.3024,589.265
1167.8373,588.903
1168.3721,588.212
1168.907,589.864
1169.4419,591.119
1169.9768,592.095
1170.5116,591.738
1171.0465,589.581
1171.5814,587.155
1172.1163,590.693
1172.6512,595.154
1173.186,591.303
1173.7209,592.793
1174.2559,591.227
1174.7908,590.837
1175.3256,590.326
1175.8605,592.383
1176.3954,590.957
1176.9303,591.243
1177.4651,588.827
1178,588.81
1178.5349,587.012
1179.0698,589.215
1179.6047,594.488
1180.1395,592.578
1180.6744,587.096
1181.2094,589.497
1181.7443,588.088
1182.2791,588.03
1182.814,592.132
1183.3489,590.836
1183.8838,590.225
1184.4186,588.568
1184.9535,589.684
1185.4884,590.548
1186.0233,591.691
1186.5582,589.203
1187.093,591.811
1187.6279,588.547
1188.1628,587.86
1188.6978,588.827
1189.2325,589.406
1189.7675,594.467
1190.3024,594.641
1190.8373,591.019
1191.3721,589.153
1191.907,588
1192.4419,590.125
1192.9768,592.734
1193.5116,590.975
1194.0465,592.254
1194.5814,591.479
1195.1163,586.005
1195.6512,591.847
1196.186,593.335
1196.7209,589.156
1197.2559,590.657
1197.7908,591.059
1198.3256,590.011
1198.8605,586.261
1199.3954,589.611
1199.9303,588.352
1200.4651,590.406
1201,592.447
1201.5349,592.799
1202.0698,594.57
1202.6047,596.268
1203.1395,592.774
1203.6744,591.615
1204.2094,593.055
1204.7443,590.009
1205.2791,587.362
1205.814,589.374
1206.3489,592.805
1206.8838,590.555
1207.4186,588.013
1207.9535,590.845
1208.4884,594.072
1209.0233,592.593
1209.5582,588.845
1210.093,588.605
1210.6279,587.802
1211.1628,589.152
1211.6978,589.307
1212.2325,592.574
1212.7675,591.317
1213.3024,591.199
1213.8373,589.345
1214.3721,591.948
1214.907,590.475
1215.4419,588.437
1215.9768,590.746
1216.5116,589.491
1217.0465,589.73
1217.5814,590.03
1218.1163,591.015
1218.6512,593.132
1219.186,592.539
1219.7209,588.531
1220.2559,591.77
1220.7908,593.746
1221.3256,588.918
1221.8605,592.822
1222.3954,593.927
1222.9303,594.646
1223.4651,590.172
1224,586.931
1224.5349,592.769
1225.0698,593.769
1225.6047,589.025
1226.1395,591.565
1226.6744,592.103
1227.2094,590.845
1227.7443,587.824
1228.2791,592.406
1228.814,589.809
1229.3489,590.708
1229.8838,591.766
1230.4186,588.722
1230.9535,590.599
1231.4884,587.084
1232.0233,590.724
1232.5582,595.163
1233.093,595.445
1233.6279,588.612
1234.1628,590.636
1234.6978,590.084
1235.2325,591.514
1235.7675,591.466
1236.3024,590.875
1236.8373,586.494
1237.3721,588.761
1237.907,595.943
1238.4419,591.471
1238.9768,595.382
1239.5117,590.247
1240.0465,589.728
1240.5814,590.168
1241.1163,588.637
1241.6512,590.528
1242.186,589.723
1242.7209,591.012
1243.2559,591.432
1243.7908,588.872
1244.3256,589.78
1244.8605,589.39
1245.3954,595.686
1245.9303,592.209
1246.4651,588.847
1247,591.754
1247.5349,592.263
1248.0698,590.456
1248.6047,587.085
1249.1395,590.821
1249.6744,590.952
1250.2094,587.272
1250.7443,593.004
1251.2791,589.801
1251.814,589.264
1252.3489,592.731
1252.8838,588.436
1253.4186,591.499
1253.9535,593.255
1254.4884,587.768
1255.0233,589.685
1255.5582,592.953
1256.093,588.195
1256.6279,592.993
1257.1628,587.223
1257.6978,592.32
1258.2325,592.734
1258.7675,589.523
1259.3024,591.27
1259.8373,591.589
1260.3721,588.185
1260.907,591.895
1261.4419,589.382
1261.9768,591.906
1262.5117,592.258
1263.0465,592.5
1263.5814,594.115
1264.1163,589.886
1264.6512,590.099
1265.186,593.154
1265.7209,589.273
1266.2559,590.807
1266.7908,590.972
1267.3256,589.449
1267.8605,590.718
1268.3954,589.053
1268.9303,589.669
1269.4651,592.96
1270,592.829
1270.5349,591.651
1271.0698,592.626
1271.6047,592.931
1272.1395,594.586
1272.6744,592.008
1273.2094,590.459
1273.7443,589.405
1274.2791,589.651
1274.814,590.288
1275.3489,592.26
1275.8838,592.299
1276.4186,593.291
1276.9535,592.598
1277.4884,590.232
1278.0233,590.755
1278.5582,589.36
1279.093,593.094
1279.6279,594.31
1280.1628,590.199
1280.6978,590.323
1281.2325,592.02
1281.7675,591.793
1282.3024,590.002
1282.8373,590.066
1283.3721,590.427
1283.907,590.749
1284.4419,590.692
1284.9768,592.868
1285.5117,588.566
1286.0465,588.221
1286.5814,592.392
1287.1163,591.798
1287.6512,592.329
1288.186,588.3
1288.7209,590.972
1289.2559,591.264
1289.7908,590.169
1290.3256,591.076
1290.8605,591.99
1291.3954,589.374
1291.9303,588.248
1292.4651,591.431
1293,591.088
1293.5349,587.983
1294.0698,590.462
1294.6047,591.735
1295.1395,592.615
1295.6744,590.039
1296.2094,590.321
1296.7443,590.63
1297.2791,587.411
1297.814,590.286
1298.3489,591.413
1298.8838,595.69
1299.4186,590.137
1299.9535,588.374
1300.4884,591.305
1301.0233,593.131
1301.5582,591.366
1302.093,590.801
1302.6279,592.679
1303.1628,592.787
1303.6978,591.548
1304.2325,587.963
1304.7675,590.858
1305.3024,592.252
1305.8373,590.799
1306.3721,590.799
1306.907,593.076
1307.4419,592.573
1307.9768,587.346
1308.5117,590.916
1309.0465,591.136
1309.5814,589.518
1310.1163,590.445
1310.6512,591.692
1311.186,594.317
1311.7209,588.58
1312.2559,587.663
1312.7908,590.817
1313.3256,595.583
1313.8605,590.757
1314.3954,587.883
1314.9303,594.775
1315.4651,589.935
1316,593.887
1316.5349,589.987
1317.0698,593.474
1317.6047,590.478
1318.1395,588.662
1318.6744,594.17
1319.2094,592.895
1319.7443,588.901
1320.2791,589.381
1320.814,591.641
1321.3489,590.982
1321.8838,593.6
1322.4186,591.616
1322.9535,589.967
1323.4884,590.909
1324.0233,593.008
1324.5582,592.841
1325.093,589.894
1325.6279,591.265
1326.1628,590.327
1326.6978,592.092
1327.2325,596.066
1327.7675,588.709
1328.3024,586.184
1328.8373,590.425
1329.3721,592.469
1329.907,589.848
1330.4419,591.098
1330.9768,588.914
1331.5117,593.412
1332.0465,591.481
1332.5814,590.788
1333.1163,594.996
1333.6512,591.744
1334.186,590.395
1334.7209,593.65
1335.2559,588.418
1335.7908,589.233
1336.3256,591.005
1336.8605,590.763
1337.3954,593.071
1337.9303,593.57
1338.4652,592.743
1339,591.225
1339.5349,592.489
1340.0698,588.824
1340.6047,591.93
1341.1395,592.717
1341.6744,586.114
1342.2094,588.987
1342.7443,588.146
1343.2791,592.914
1343.814,589.094
1344.3489,593.539
1344.8838,592.674
1345.4186,593.917
1345.9535,593.938
1346.4884,592.257
1347.0233,592.208
1347.5582,590.576
1348.093,592.047
1348.6279,589.834
1349.1628,589.88
1349.6978,594.878
1350.2325,590.692
1350.7675,589.715
1351.3024,593.989
1351.8373,590.882
1352.3721,589.966
1352.907,591.78
1353.4419,594.177
1353.9768,590.737
1354.5117,594.945
1355.0465,588.062
1355.5814,587.989
1356.1163,590.857
1356.6512,590.999
1357.186,591.927
1357.7209,593.648
1358.2559,591.949
1358.7908,589.824
1359.3256,592.467
1359.8605,595.094
1360.3954,592.015
1360.9303,594.015
1361.4652,591.843
1362,592.172
1362.5349,593.079
1363.0698,592.963
1363.6047,595.366
1364.1395,595.409
1364.6744,588.793
1365.2094,592.161
1365.7443,590.984
1366.2791,592.007
1366.814,592.361
1367.3489,591.065
1367.8838,595.047
1368.4186,590.584
1368.9535,590.796
1369.4884,591.076
1370.0233,586.912
1370.5582,587.254
1371.093,591.633
1371.6279,594.043
1372.1628,590.628
1372.6978,586.395
1373.2325,590.503
1373.7675,593.986
1374.3024,590.173
1374.8373,588.735
1375.3721,589.557
1375.907,590.827
1376.4419,590.424
1376.9768,588.959
1377.5117,590.697
1378.0465,591.167
1378.5814,588.992
1379.1163,592.096
1379.6512,592.769
1380.186,590.098
1380.7209,591.768
1381.2559,590.457
1381.7908,590.939
1382.3256,590.993
1382.8605,594.475
1383.3954,591.324
1383.9303,589.454
1384.4652,591.209
1385,589.584
1385.5349,592.323
1386.0698,589.128
1386.6047,587.698
1387.1395,589.804
1387.6744,591.957
1388.2094,591.966
1388.7443,591.085
1389.2791,591.651
1389.814,590.999
1390.3489,593.632
1390.8838,588.76
1391.4186,590.249
1391.9535,589.65
1392.4884,595.96
1393.0233,587.751
1393.5582,594.596
1394.093,592.704
1394.6279,592.878
1395.1628,590.775
1395.6978,591.748
1396.2325,590.148
1396.7675,590.96
1397.3024,590.992
1397.8373,589.741
1398.3721,587.043
1398.907,589.176
1399.4419,591.232
1399.9768,592.897
1400.5117,588.657
1401.0465,590.487
1401.5814,588.832
1402.1163,588.586
1402.6512,592.348
1403.186,591.68
1403.7209,591.134
1404.2559,589.093
1404.7908,591.639
1405.3256,591.926
1405.8605,593.1
1406.3954,588.03
1406.9303,594.236
1407.4652,590.139
1408,588.798
1408.5349,591.044
1409.0698,587.649
1409.6047,593.621
1410.1395,595.89
1410.6744,591
1411.2094,589.903
1411.7443,591.006
1412.2791,591.091
1412.814,592.411
1413.3489,589.656
1413.8838,587.752
1414.4186,591.736
1414.9535,592.03
1415.4884,592.051
1416.0233,592.755
1416.5582,590.384
1417.093,595.326
1417.6279,591.844
1418.1628,590.259
1418.6978,590.281
1419.2325,589.651
1419.7675,594.367
1420.3024,592.379
1420.8373,589.296
1421.3721,591.982
1421.907,594.427
1422.4419,589.791
1422.9768,589.629
1423.5117,591.095
1424.0465,588.999
1424.5814,591.027
1425.1163,588.643
1425.6512,587.426
1426.186,592.981
1426.7209,593.304
1427.2559,590.808
1427.7908,590.284
1428.3256,586.171
1428.8605,589.13
1429.3954,591.725
1429.9303,592.279
1430.4652,591.509
1431,586.882
1431.5349,591.396
1432.0698,589.417
1432.6047,589.823
1433.1395,591.013
1433.6744,590.06
1434.2094,591.851
1434.7443,589.004
1435.2791,589.36
1435.814,588.005
1436.3489,592.016
1436.8838,589.57
1437.4187,590.38
1437.9535,592.047
1438.4884,593.433
1439.0233,591.421
1439.5582,592.009
1440.093,589.391
1440.6279,591.507
1441.1628,591.182
1441.6978,590.997
1442.2325,590.992
1442.7675,593.03
1443.3024,591.875
1443.8373,590.643
1444.3721,587.183
1444.907,588.781
1445.4419,590.011
1445.9768,588.169
1446.5117,592.91
1447.0465,590.934
1447.5814,589.099
1448.1163,588.73
1448.6512,587.659
1449.186,593.089
1449.7209,591.433
1450.2559,592.872
1450.7908,591.047
1451.3256,590.977
1451.8605,586.185
1452.3954,593.092
1452.9303,587.183
1453.4652,589.358
1454,590.662
1454.5349,588.086
1455.0698,592.529
1455.6047,589.531
1456.1395,590.261
1456.6744,593.536
1457.2094,588.927
1457.7443,586.84
1458.2791,592.35
1458.814,591.497
1459.3489,590.665
1459.8838,595.003
1460.4187,590.96
1460.9535,593.23
1461.4884,592.339
1462.0233,589.653
1462.5582,593.739
1463.093,589.193
1463.6279,591.272
1464.1628,593.114
1464.6978,593.71
1465.2325,592.476
1465.7675,590.229
1466.3024,589.484
1466.8373,593.783
1467.3721,595.452
1467.907,592.367
1468.4419,591.012
1468.9768,590.075
1469.5117,587.049
1470.0465,592.438
1470.5814,592.472
1471.1163,588.634
1471.6512,589.212
1472.186,590.767
1472.7209,591.756
1473.2559,588.23
1473.7908,591.17
1474.3256,593.441
1474.8605,591.272
1475.3954,589.528
1475.9303,588.966
1476.4652,589.338
1477,594.891
1477.5349,590.223
1478.0698,591.985
1478.6047,590.633
1479.1395,585.296
1479.6744,590.983
1480.2094,590.424
1480.7443,594.738
1481.2791,586.831
1481.814,588.766
1482.3489,591.802
1482.8838,591.768
1483.4187,588.931
1483.9535,590.07
1484.4884,592.898
1485.0233,591.194
1485.5582,592.872
1486.093,591.048
1486.6279,593.882
1487.1628,593.976
1487.6978,593.02
1488.2325,592.651
1488.7675,591.701
1489.3024,594.204
1489.8373,587.783
1490.3721,591.485
1490.907,591.894
1491.4419,587.35
1491.9768,587.884
1492.5117,589.789
1493.0465,591.855
1493.5814,592.257
1494.1163,590.674
1494.6512,595.597
1495.186,593.347
1495.7209,591.002
1496.2559,592.057
1496.7908,593.04
1497.3256,591.402
1497.8605,589.447
1498.3954,591.719
1498.9303,592.806
1499.4652,591.647
1500,586.941
